#  Table crwfpc2comp$wfpc2_f122m_004.tab  Thu 08:19:08 15-May-97

# WAVELENGTH   THROUGHPUT        error
#  ANGSTROMS TRANSMISSION TRANSMISSION

      1100.0    1.4031E-8           0.
      1130.0    0.0014031           0.
      1140.0     0.035077           0.
      1150.0     0.063138           0.
      1160.0     0.091199           0.
      1170.0        0.114           0.
      1180.0       0.1368           0.
      1190.0      0.15258           0.
      1200.0      0.16837           0.
      1210.0       0.1834           0.
      1220.0      0.18591           0.
      1230.0      0.18941           0.
      1240.0      0.19292           0.
      1250.0      0.19117           0.
      1260.0      0.18941           0.
      1270.0      0.16486           0.
      1280.0      0.14031           0.
      1290.0      0.12628           0.
      1300.0      0.11225           0.
      1310.0     0.096461           0.
      1320.0     0.080676           0.
      1330.0     0.061384           0.
      1340.0     0.042092           0.
      1350.0     0.035077           0.
      1360.0     0.028061           0.
      1370.0     0.024554           0.
      1400.0     0.022449           0.
      1500.0     0.014031           0.
      1600.0     0.010102           0.
      1700.0    0.0070153           0.
      1800.0    0.0047704           0.
      1900.0    0.0033674           0.
      1990.0    0.0023614           0.
      2000.0    0.0022744           0.
      2010.0    0.0021944           0.
      2020.0    0.0021102           0.
      2030.0    0.0020485           0.
      2040.0    0.0019713           0.
      2050.0    0.0019053           0.
      2060.0    0.0018366           0.
      2070.0    0.0017833           0.
      2080.0    0.0017173           0.
      2090.0    0.0016654           0.
      2100.0    0.0016037           0.
      2110.0    0.0015518           0.
      2120.0    0.0015013           0.
      2130.0    0.0014536           0.
      2140.0     0.001396           0.
      2150.0    0.0013624           0.
      2160.0    0.0013133           0.
      2170.0    0.0012726           0.
      2180.0    0.0012277           0.
      2190.0     0.001187           0.
      2200.0    0.0011463           0.
      2210.0     0.001114           0.
      2220.0    0.0010775           0.
      2230.0    0.0010439           0.
      2240.0    0.0010102           0.
      2250.0    9.7653E-4           0.
      2260.0    9.4566E-4           0.
      2270.0    9.2041E-4           0.
      2280.0    8.8673E-4           0.
      2290.0    8.5867E-4           0.
      2300.0    8.2781E-4           0.
      2310.0    8.0956E-4           0.
      2320.0    7.7870E-4           0.
      2330.0    7.5765E-4           0.
      2340.0    7.3520E-4           0.
      2350.0    7.1135E-4           0.
      2360.0    6.8890E-4           0.
      2370.0    6.7207E-4           0.
      2380.0    6.5383E-4           0.
      2390.0    6.3418E-4           0.
      2400.0    6.1594E-4           0.
      2410.0    5.9911E-4           0.
      2420.0    5.8227E-4           0.
      2430.0    5.6684E-4           0.
      2440.0    5.5140E-4           0.
      2450.0    5.3878E-4           0.
      2460.0    5.2334E-4           0.
      2470.0    5.0791E-4           0.
      2480.0    4.9668E-4           0.
      2490.0    4.8125E-4           0.
      2500.0    4.7003E-4           0.
      2510.0    4.5880E-4           0.
      2520.0    4.4617E-4           0.
      2530.0    4.3775E-4           0.
      2540.0    4.2372E-4           0.
      2550.0    4.1390E-4           0.
      2560.0    4.0689E-4           0.
      2570.0    3.9566E-4           0.
      2580.0    3.8865E-4           0.
      2590.0    3.7742E-4           0.
      2600.0    3.7041E-4           0.
      2610.0    3.6339E-4           0.
      2620.0    3.5638E-4           0.
      2630.0    3.4515E-4           0.
      2640.0    3.4235E-4           0.
      2650.0    3.3253E-4           0.
      2660.0    3.2832E-4           0.
      2670.0    3.1850E-4           0.
      2680.0    3.1429E-4           0.
      2690.0    3.0867E-4           0.
      2700.0    3.0166E-4           0.
      2710.0    2.9745E-4           0.
      2720.0    2.9043E-4           0.
      2730.0    2.8482E-4           0.
      2740.0    2.7921E-4           0.
      2750.0    2.7500E-4           0.
      2760.0    2.6939E-4           0.
      2770.0    2.6378E-4           0.
      2780.0    2.5957E-4           0.
      2790.0    2.5816E-4           0.
      2800.0    2.5115E-4           0.
      2810.0    2.4694E-4           0.
      2820.0    2.4133E-4           0.
      2830.0    2.3852E-4           0.
      2840.0    2.3571E-4           0.
      2850.0    2.3291E-4           0.
      2860.0    2.2730E-4           0.
      2870.0    2.2168E-4           0.
      2880.0    2.1888E-4           0.
      2890.0    2.1467E-4           0.
      2900.0    2.1186E-4           0.
      2910.0    2.0906E-4           0.
      2920.0    2.0625E-4           0.
      2930.0    2.0064E-4           0.
      2940.0    1.9643E-4           0.
      2950.0    1.9503E-4           0.
      2960.0    1.9362E-4           0.
      2970.0    1.9082E-4           0.
      2980.0    1.8801E-4           0.
      2990.0    1.8661E-4           0.
      3000.0    1.8100E-4           0.
      3010.0    1.7959E-4           0.
      3020.0    1.7538E-4           0.
      3030.0    1.7258E-4           0.
      3040.0    1.6696E-4           0.
      3050.0    1.6556E-4           0.
      3060.0    1.6416E-4           0.
      3070.0    1.6135E-4           0.
      3080.0    1.5855E-4           0.
      3090.0    1.5434E-4           0.
      3100.0    1.5855E-4           0.
      3110.0    1.5434E-4           0.
      3120.0    1.5153E-4           0.
      3130.0    1.5013E-4           0.
      3140.0    1.4732E-4           0.
      3150.0    1.4592E-4           0.
      3160.0    1.4311E-4           0.
      3170.0    1.4031E-4           0.
      3180.0    1.3610E-4           0.
      3190.0    1.3610E-4           0.
      3200.0    1.3469E-4           0.
      3210.0    1.3610E-4           0.
      3220.0    1.3048E-4           0.
      3230.0    1.3048E-4           0.
      3240.0    1.2768E-4           0.
      3250.0    1.2207E-4           0.
      3260.0    1.2347E-4           0.
      3270.0    1.2347E-4           0.
      3280.0    1.1786E-4           0.
      3290.0    1.2207E-4           0.
      3300.0    1.2066E-4           0.
      3310.0    1.2066E-4           0.
      3320.0    1.1786E-4           0.
      3330.0    1.1225E-4           0.
      3340.0    1.1365E-4           0.
      3350.0    1.1084E-4           0.
      3360.0    1.1084E-4           0.
      3370.0    1.0804E-4           0.
      3380.0    1.0663E-4           0.
      3390.0    1.0242E-4           0.
      3400.0    1.0383E-4           0.
      3410.0    1.0242E-4           0.
      3420.0    1.0242E-4           0.
      3430.0    1.0242E-4           0.
      3440.0    1.0102E-4           0.
      3450.0    9.8215E-5           0.
      3460.0    9.9617E-5           0.
      3470.0    9.6811E-5           0.
      3480.0    9.6811E-5           0.
      3490.0    9.4005E-5           0.
      3500.0    9.2602E-5           0.
      3510.0    9.1199E-5           0.
      3520.0    9.2602E-5           0.
      3530.0    8.9796E-5           0.
      3540.0    8.9796E-5           0.
      3550.0    8.9796E-5           0.
      3560.0    8.5587E-5           0.
      3570.0    8.6990E-5           0.
      3580.0    8.5587E-5           0.
      3590.0    8.2781E-5           0.
      3600.0    8.4183E-5           0.
      3610.0    7.9975E-5           0.
      3620.0    7.9975E-5           0.
      3630.0    7.8572E-5           0.
      3640.0    8.1378E-5           0.
      3650.0    7.9974E-5           0.
      3660.0    7.7169E-5           0.
      3670.0    7.7169E-5           0.
      3680.0    7.8571E-5           0.
      3690.0    7.7168E-5           0.
      3700.0    7.5765E-5           0.
      3710.0    7.4362E-5           0.
      3720.0    7.4362E-5           0.
      3730.0    7.1556E-5           0.
      3740.0    7.2959E-5           0.
      3750.0    7.0153E-5           0.
      3760.0    7.0153E-5           0.
      3770.0    7.0153E-5           0.
      3780.0    7.0153E-5           0.
      3790.0    6.8750E-5           0.
      3800.0    6.8750E-5           0.
      3810.0    6.8750E-5           0.
      3820.0    6.8750E-5           0.
      3830.0    6.5944E-5           0.
      3840.0    6.4541E-5           0.
      3850.0    6.7347E-5           0.
      3860.0    6.5944E-5           0.
      3870.0    6.5944E-5           0.
      3880.0    6.3138E-5           0.
      3890.0    6.3138E-5           0.
      3900.0    6.1735E-5           0.
      3910.0    6.3138E-5           0.
      3920.0    6.1735E-5           0.
      3930.0    6.1735E-5           0.
      3940.0    6.0332E-5           0.
      3950.0    6.0332E-5           0.
      3960.0    6.0332E-5           0.
      3970.0    5.8929E-5           0.
      3980.0    5.8929E-5           0.
      3990.0    5.7526E-5           0.
      4000.0    5.8929E-5           0.
      4010.0    5.7526E-5           0.
      4020.0    5.7525E-5           0.
      4030.0    5.4720E-5           0.
      4040.0    5.6123E-5           0.
      4050.0    5.6122E-5           0.
      4060.0    5.4719E-5           0.
      4070.0    5.3317E-5           0.
      4080.0    5.4719E-5           0.
      4090.0    5.3316E-5           0.
      4100.0    5.3317E-5           0.
      4110.0    5.4719E-5           0.
      4120.0    5.1913E-5           0.
      4130.0    5.1914E-5           0.
      4140.0    5.3316E-5           0.
      4150.0    5.1913E-5           0.
      4160.0    5.0510E-5           0.
      4170.0    5.1913E-5           0.
      4180.0    5.1913E-5           0.
      4190.0    4.9107E-5           0.
      4200.0    5.0510E-5           0.
      4210.0    4.9107E-5           0.
      4220.0    4.7704E-5           0.
      4230.0    4.9107E-5           0.
      4240.0    4.9107E-5           0.
      4250.0    4.9107E-5           0.
      4260.0    4.9107E-5           0.
      4270.0    4.7704E-5           0.
      4280.0    4.7704E-5           0.
      4290.0    4.7704E-5           0.
      4300.0    4.6301E-5           0.
      4310.0    4.6301E-5           0.
      4320.0    4.6301E-5           0.
      4330.0    4.6301E-5           0.
      4340.0    4.6301E-5           0.
      4350.0    4.4898E-5           0.
      4360.0    4.3495E-5           0.
      4370.0    4.6301E-5           0.
      4380.0    4.4898E-5           0.
      4390.0    4.3495E-5           0.
      4400.0    4.2092E-5           0.
      4410.0    4.3495E-5           0.
      4420.0    4.2092E-5           0.
      4430.0    4.3495E-5           0.
      4440.0    4.3495E-5           0.
      4450.0    4.2092E-5           0.
      4460.0    4.3495E-5           0.
      4470.0    4.2092E-5           0.
      4480.0    4.2092E-5           0.
      4490.0    4.2092E-5           0.
      4500.0    3.9286E-5           0.
      4510.0    3.9286E-5           0.
      4520.0    4.0689E-5           0.
      4530.0    3.9286E-5           0.
      4540.0    4.2092E-5           0.
      4550.0    3.9286E-5           0.
      4560.0    3.7883E-5           0.
      4570.0    3.9286E-5           0.
      4580.0    3.9286E-5           0.
      4590.0    4.0689E-5           0.
      4600.0    4.0689E-5           0.
      4610.0    3.9286E-5           0.
      4620.0    3.9286E-5           0.
      4630.0    3.9286E-5           0.
      4640.0    3.9286E-5           0.
      4650.0    3.7883E-5           0.
      4660.0    3.7883E-5           0.
      4670.0    3.6480E-5           0.
      4680.0    3.5077E-5           0.
      4690.0    3.9286E-5           0.
      4700.0    3.6480E-5           0.
      4710.0    3.5077E-5           0.
      4720.0    3.6480E-5           0.
      4730.0    3.7882E-5           0.
      4740.0    3.5077E-5           0.
      4750.0    3.6480E-5           0.
      4760.0    3.5077E-5           0.
      4770.0    3.5076E-5           0.
      4780.0    3.3674E-5           0.
      4790.0    3.5076E-5           0.
      4800.0    3.3674E-5           0.
      4810.0    3.5077E-5           0.
      4820.0    3.5076E-5           0.
      4830.0    3.3674E-5           0.
      4840.0    3.3674E-5           0.
      4850.0    3.5076E-5           0.
      4860.0    3.3674E-5           0.
      4870.0    3.3674E-5           0.
      4880.0    3.3673E-5           0.
      4890.0    3.2271E-5           0.
      4900.0    3.3673E-5           0.
      4910.0    3.2271E-5           0.
      4920.0    3.3673E-5           0.
      4930.0    3.2270E-5           0.
      4940.0    3.2271E-5           0.
      4950.0    3.5076E-5           0.
      4960.0    3.2270E-5           0.
      4970.0    3.0868E-5           0.
      4980.0    3.5076E-5           0.
      4990.0    2.9464E-5           0.
      5000.0    3.0868E-5           0.
      5010.0    3.3673E-5           0.
      5020.0    3.0868E-5           0.
      5030.0    3.2270E-5           0.
      5040.0    2.8062E-5           0.
      5050.0    3.0868E-5           0.
      5060.0    3.2270E-5           0.
      5070.0    3.2270E-5           0.
      5080.0    3.2270E-5           0.
      5090.0    3.0867E-5           0.
      5100.0    3.0867E-5           0.
      5110.0    3.0867E-5           0.
      5120.0    3.0867E-5           0.
      5130.0    3.0867E-5           0.
      5140.0    3.0867E-5           0.
      5150.0    3.0867E-5           0.
      5160.0    2.9464E-5           0.
      5170.0    3.0867E-5           0.
      5180.0    3.0867E-5           0.
      5190.0    2.9464E-5           0.
      5200.0    3.0867E-5           0.
      5210.0    2.9464E-5           0.
      5220.0    2.9464E-5           0.
      5230.0    3.0867E-5           0.
      5240.0    3.0867E-5           0.
      5250.0    2.9464E-5           0.
      5260.0    2.9464E-5           0.
      5270.0    2.8061E-5           0.
      5280.0    2.9464E-5           0.
      5290.0    2.8061E-5           0.
      5300.0    2.9464E-5           0.
      5310.0    2.8061E-5           0.
      5320.0    2.6659E-5           0.
      5330.0    2.9464E-5           0.
      5340.0    2.9464E-5           0.
      5350.0    2.8061E-5           0.
      5360.0    2.9464E-5           0.
      5370.0    2.8061E-5           0.
      5380.0    2.6658E-5           0.
      5390.0    2.8061E-5           0.
      5400.0    2.8061E-5           0.
      5410.0    2.6658E-5           0.
      5420.0    2.8061E-5           0.
      5430.0    2.8061E-5           0.
      5440.0    2.8061E-5           0.
      5450.0    2.8061E-5           0.
      5460.0    2.6658E-5           0.
      5470.0    2.5255E-5           0.
      5480.0    2.8061E-5           0.
      5490.0    2.8061E-5           0.
      5500.0    2.6658E-5           0.
      5510.0    2.6658E-5           0.
      5520.0    2.5255E-5           0.
      5530.0    2.8061E-5           0.
      5540.0    2.6658E-5           0.
      5550.0    2.6658E-5           0.
      5560.0    2.8061E-5           0.
      5570.0    2.6658E-5           0.
      5580.0    2.5255E-5           0.
      5590.0    2.5255E-5           0.
      5600.0    2.6658E-5           0.
      5610.0    2.3852E-5           0.
      5620.0    2.6658E-5           0.
      5630.0    2.5255E-5           0.
      5640.0    2.5255E-5           0.
      5650.0    2.6658E-5           0.
      5660.0    2.5255E-5           0.
      5670.0    2.5255E-5           0.
      5680.0    2.5255E-5           0.
      5690.0    2.2450E-5           0.
      5700.0    2.6658E-5           0.
      5710.0    2.6658E-5           0.
      5720.0    2.6658E-5           0.
      5730.0    2.2449E-5           0.
      5740.0    2.2450E-5           0.
      5750.0    2.6658E-5           0.
      5760.0    2.5255E-5           0.
      5770.0    2.6658E-5           0.
      5780.0    2.3852E-5           0.
      5790.0    2.3852E-5           0.
      5800.0    2.5255E-5           0.
      5810.0    2.6658E-5           0.
      5820.0    2.3852E-5           0.
      5830.0    2.5255E-5           0.
      5840.0    2.5255E-5           0.
      5850.0    2.3852E-5           0.
      5860.0    2.5255E-5           0.
      5870.0    2.5255E-5           0.
      5880.0    2.5255E-5           0.
      5890.0    2.6658E-5           0.
      5900.0    2.5255E-5           0.
      5910.0    2.3852E-5           0.
      5920.0    2.5255E-5           0.
      5930.0    2.6658E-5           0.
      5940.0    2.5255E-5           0.
      5950.0    2.5255E-5           0.
      5960.0    2.6658E-5           0.
      5970.0    2.6658E-5           0.
      5980.0    2.5255E-5           0.
      5990.0    2.3852E-5           0.
      6000.0    2.5255E-5           0.
      6010.0    2.6658E-5           0.
      6020.0    2.6658E-5           0.
      6030.0    2.3852E-5           0.
      6040.0    2.3852E-5           0.
      6050.0    2.5255E-5           0.
      6060.0    2.3852E-5           0.
      6070.0    2.3852E-5           0.
      6080.0    2.5255E-5           0.
      6090.0    2.6658E-5           0.
      6100.0    2.2449E-5           0.
      6110.0    2.6658E-5           0.
      6120.0    2.5255E-5           0.
      6130.0    2.3852E-5           0.
      6140.0    2.3852E-5           0.
      6150.0    2.3852E-5           0.
      6160.0    2.3852E-5           0.
      6170.0    2.5255E-5           0.
      6180.0    2.5255E-5           0.
      6190.0    2.3852E-5           0.
      6200.0    2.3852E-5           0.
      6210.0    2.3852E-5           0.
      6220.0    2.2449E-5           0.
      6230.0    2.3852E-5           0.
      6240.0    2.3852E-5           0.
      6250.0    2.2449E-5           0.
      6260.0    2.5255E-5           0.
      6270.0    2.2449E-5           0.
      6280.0    2.3852E-5           0.
      6290.0    2.3852E-5           0.
      6300.0    2.2449E-5           0.
      6310.0    2.1046E-5           0.
      6320.0    2.5255E-5           0.
      6330.0    2.3852E-5           0.
      6340.0    2.3852E-5           0.
      6350.0    2.2449E-5           0.
      6360.0    2.2449E-5           0.
      6370.0    2.2449E-5           0.
      6380.0    2.3852E-5           0.
      6390.0    2.2449E-5           0.
      6400.0    2.3852E-5           0.
      6410.0    2.2449E-5           0.
      6420.0    2.2449E-5           0.
      6430.0    2.3852E-5           0.
      6440.0    2.3852E-5           0.
      6450.0    2.3852E-5           0.
      6460.0    2.2449E-5           0.
      6470.0    2.3852E-5           0.
      6480.0    2.3852E-5           0.
      6490.0    2.2449E-5           0.
      6500.0    2.3852E-5           0.
      6510.0    2.5255E-5           0.
      6520.0    2.2449E-5           0.
      6530.0    2.3852E-5           0.
      6540.0    2.2449E-5           0.
      6550.0    2.2449E-5           0.
      6560.0    2.2449E-5           0.
      6570.0    2.3852E-5           0.
      6580.0    2.5255E-5           0.
      6590.0    2.6658E-5           0.
      6600.0    2.3852E-5           0.
      6610.0    2.3852E-5           0.
      6620.0    2.2449E-5           0.
      6630.0    2.3852E-5           0.
      6640.0    2.3852E-5           0.
      6650.0    2.3852E-5           0.
      6660.0    2.1046E-5           0.
      6670.0    2.3852E-5           0.
      6680.0    2.3852E-5           0.
      6690.0    2.3852E-5           0.
      6700.0    2.3852E-5           0.
      6710.0    2.3852E-5           0.
      6720.0    2.3852E-5           0.
      6730.0    2.3852E-5           0.
      6740.0    2.5255E-5           0.
      6750.0    2.5255E-5           0.
      6760.0    2.2449E-5           0.
      6770.0    2.3852E-5           0.
      6780.0    2.3852E-5           0.
      6790.0    2.2449E-5           0.
      6800.0    2.5255E-5           0.
      6810.0    2.3852E-5           0.
      6820.0    2.5255E-5           0.
      6830.0    2.3852E-5           0.
      6840.0    2.3852E-5           0.
      6850.0    2.5255E-5           0.
      6860.0    2.5255E-5           0.
      6870.0    2.3852E-5           0.
      6880.0    2.3852E-5           0.
      6890.0    2.2449E-5           0.
      6900.0    2.3852E-5           0.
      6910.0    2.3852E-5           0.
      6920.0    2.3852E-5           0.
      6930.0    2.3852E-5           0.
      6940.0    2.5255E-5           0.
      6950.0    2.5255E-5           0.
      6960.0    2.6658E-5           0.
      6970.0    2.5255E-5           0.
      6980.0    2.5255E-5           0.
      6990.0    2.5255E-5           0.
      7000.0    2.5255E-5           0.
      7010.0    2.5255E-5           0.
      7020.0    2.6658E-5           0.
      7030.0    2.3852E-5           0.
      7040.0    2.3852E-5           0.
      7050.0    2.6658E-5           0.
      7060.0    2.5255E-5           0.
      7070.0    2.5255E-5           0.
      7080.0    2.5255E-5           0.
      7090.0    2.5255E-5           0.
      7100.0    2.6658E-5           0.
      7110.0    2.5255E-5           0.
      7120.0    2.6658E-5           0.
      7130.0    2.6658E-5           0.
      7140.0    2.5255E-5           0.
      7150.0    2.6658E-5           0.
      7160.0    2.5255E-5           0.
      7170.0    2.6658E-5           0.
      7180.0    2.6658E-5           0.
      7190.0    2.6658E-5           0.
      7200.0    2.5255E-5           0.
      7210.0    2.6658E-5           0.
      7220.0    2.5255E-5           0.
      7230.0    2.5255E-5           0.
      7240.0    2.8061E-5           0.
      7250.0    2.6658E-5           0.
      7260.0    2.6658E-5           0.
      7270.0    2.8061E-5           0.
      7280.0    2.6658E-5           0.
      7290.0    2.6658E-5           0.
      7300.0    2.6658E-5           0.
      7310.0    2.8061E-5           0.
      7320.0    2.9464E-5           0.
      7330.0    2.9464E-5           0.
      7340.0    2.8061E-5           0.
      7350.0    2.8061E-5           0.
      7360.0    2.8061E-5           0.
      7370.0    2.8061E-5           0.
      7380.0    2.9464E-5           0.
      7390.0    2.9464E-5           0.
      7400.0    2.9464E-5           0.
      7410.0    2.9464E-5           0.
      7420.0    3.0867E-5           0.
      7430.0    2.9464E-5           0.
      7440.0    3.0867E-5           0.
      7450.0    2.9464E-5           0.
      7460.0    3.0867E-5           0.
      7470.0    2.9464E-5           0.
      7480.0    3.0867E-5           0.
      7490.0    3.0868E-5           0.
      7500.0    3.2270E-5           0.
      7510.0    3.2270E-5           0.
      7520.0    3.2270E-5           0.
      7530.0    3.2271E-5           0.
      7540.0    3.3673E-5           0.
      7550.0    3.2270E-5           0.
      7560.0    3.2271E-5           0.
      7570.0    3.3674E-5           0.
      7580.0    3.3674E-5           0.
      7590.0    3.3674E-5           0.
      7600.0    3.3674E-5           0.
      7610.0    3.5077E-5           0.
      7620.0    3.5076E-5           0.
      7630.0    3.3674E-5           0.
      7640.0    3.7883E-5           0.
      7650.0    3.6480E-5           0.
      7660.0    3.5077E-5           0.
      7670.0    3.6480E-5           0.
      7680.0    3.5077E-5           0.
      7690.0    3.7883E-5           0.
      7700.0    3.7883E-5           0.
      7710.0    3.7883E-5           0.
      7720.0    3.7883E-5           0.
      7730.0    3.7883E-5           0.
      7740.0    3.9286E-5           0.
      7750.0    3.9286E-5           0.
      7760.0    4.0689E-5           0.
      7770.0    4.0689E-5           0.
      7780.0    3.9286E-5           0.
      7790.0    3.9286E-5           0.
      7800.0    4.2092E-5           0.
      7810.0    4.0689E-5           0.
      7820.0    4.2092E-5           0.
      7830.0    4.2092E-5           0.
      7840.0    4.3495E-5           0.
      7850.0    4.3495E-5           0.
      7860.0    4.6301E-5           0.
      7870.0    4.3495E-5           0.
      7880.0    4.4898E-5           0.
      7890.0    4.7704E-5           0.
      7900.0    4.6301E-5           0.
      7910.0    4.6301E-5           0.
      7920.0    4.7704E-5           0.
      7930.0    4.9107E-5           0.
      7940.0    4.9107E-5           0.
      7950.0    4.9107E-5           0.
      7960.0    5.1913E-5           0.
      7970.0    4.9107E-5           0.
      7980.0    4.9107E-5           0.
      7990.0    4.7704E-5           0.
      8000.0    5.3317E-5           0.
      8010.0    5.6122E-5           0.
      8020.0    5.3316E-5           0.
      8030.0    5.3317E-5           0.
      8040.0    5.4720E-5           0.
      8050.0    5.6123E-5           0.
      8060.0    5.7525E-5           0.
      8070.0    5.6123E-5           0.
      8080.0    5.7526E-5           0.
      8090.0    6.0332E-5           0.
      8100.0    5.7526E-5           0.
      8110.0    6.1735E-5           0.
      8120.0    6.0332E-5           0.
      8130.0    6.1735E-5           0.
      8140.0    6.3138E-5           0.
      8150.0    6.3138E-5           0.
      8160.0    5.8929E-5           0.
      8170.0    6.3138E-5           0.
      8180.0    6.4541E-5           0.
      8190.0    6.4541E-5           0.
      8200.0    6.5944E-5           0.
      8210.0    6.4541E-5           0.
      8220.0    6.5944E-5           0.
      8230.0    6.8750E-5           0.
      8240.0    7.1556E-5           0.
      8250.0    6.8750E-5           0.
      8260.0    7.0153E-5           0.
      8270.0    7.1556E-5           0.
      8280.0    7.2959E-5           0.
      8290.0    7.2959E-5           0.
      8300.0    7.5765E-5           0.
      8310.0    7.2959E-5           0.
      8320.0    7.1557E-5           0.
      8330.0    7.5765E-5           0.
      8340.0    7.4363E-5           0.
      8350.0    7.5766E-5           0.
      8360.0    7.7169E-5           0.
      8370.0    7.9975E-5           0.
      8380.0    7.8572E-5           0.
      8390.0    8.1378E-5           0.
      8400.0    8.2781E-5           0.
      8410.0    8.1378E-5           0.
      8420.0    8.2781E-5           0.
      8430.0    8.1378E-5           0.
      8440.0    7.9975E-5           0.
      8450.0    8.2781E-5           0.
      8460.0    8.2781E-5           0.
      8470.0    7.9975E-5           0.
      8480.0    8.1378E-5           0.
      8490.0    7.9976E-5           0.
      8500.0    1.0242E-4           0.
      8510.0    1.0804E-4           0.
      8520.0    9.9618E-5           0.
      8530.0    8.9796E-5           0.
      8540.0    1.0102E-4           0.
      8550.0    9.4005E-5           0.
      8560.0    1.0383E-4           0.
      8570.0    9.9618E-5           0.
      8580.0    9.9618E-5           0.
      8590.0    1.0804E-4           0.
      8600.0    1.2207E-4           0.
      8610.0    1.1505E-4           0.
      8620.0    1.0944E-4           0.
      8630.0    1.0944E-4           0.
      8640.0    1.0663E-4           0.
      8650.0    1.2207E-4           0.
      8660.0    1.1786E-4           0.
      8670.0    1.1225E-4           0.
      8680.0    1.1084E-4           0.
      8690.0    8.9796E-5           0.
      8700.0    1.0804E-4           0.
      8710.0    1.0102E-4           0.
      8720.0    9.1199E-5           0.
      8730.0    8.8393E-5           0.
      8740.0    1.1365E-4           0.
      8750.0    1.1225E-4           0.
      8760.0    1.0383E-4           0.
      8770.0    9.4005E-5           0.
      8780.0    9.4005E-5           0.
      8790.0    1.0383E-4           0.
      8800.0    1.0523E-4           0.
      8810.0    1.0242E-4           0.
      8820.0    9.2602E-5           0.
      8830.0    9.2602E-5           0.
      8840.0    9.9618E-5           0.
      8850.0    1.0663E-4           0.
      8860.0    1.0383E-4           0.
      8870.0    1.0383E-4           0.
      8880.0    1.0242E-4           0.
      8890.0    1.0383E-4           0.
      8900.0    1.1084E-4           0.
      8910.0    1.1365E-4           0.
      8920.0    1.0242E-4           0.
      8930.0    1.0102E-4           0.
      8940.0    1.0102E-4           0.
      8950.0    1.0523E-4           0.
      8960.0    1.0102E-4           0.
      8970.0    1.0242E-4           0.
      8980.0    1.0804E-4           0.
      8990.0    1.0663E-4           0.
      9000.0    1.0383E-4           0.
      9010.0    1.0383E-4           0.
      9020.0    1.0102E-4           0.
      9030.0    1.0944E-4           0.
      9040.0    1.0102E-4           0.
      9050.0    1.0242E-4           0.
      9060.0    9.9618E-5           0.
      9070.0    9.9618E-5           0.
      9080.0    9.6811E-5           0.
      9090.0    9.8215E-5           0.
      9100.0    9.8215E-5           0.
      9110.0    1.0102E-4           0.
      9120.0    1.0102E-4           0.
      9130.0    9.5408E-5           0.
      9140.0    9.2602E-5           0.
      9150.0    9.6811E-5           0.
      9160.0    1.0102E-4           0.
      9170.0    9.9618E-5           0.
      9180.0    9.8215E-5           0.
      9190.0    9.6811E-5           0.
      9200.0    9.8215E-5           0.
      9210.0    9.4005E-5           0.
      9220.0    9.5408E-5           0.
      9230.0    9.6811E-5           0.
      9240.0    9.4005E-5           0.
      9250.0    9.4005E-5           0.
      9260.0    9.6811E-5           0.
      9270.0    9.5408E-5           0.
      9280.0    1.0102E-4           0.
      9290.0    1.0383E-4           0.
      9300.0    9.5408E-5           0.
      9310.0    9.5408E-5           0.
      9320.0    9.6811E-5           0.
      9330.0    9.1199E-5           0.
      9340.0    8.6990E-5           0.
      9350.0    8.2781E-5           0.
      9360.0    8.6990E-5           0.
      9370.0    8.8393E-5           0.
      9380.0    9.2602E-5           0.
      9390.0    9.1199E-5           0.
      9400.0    9.8215E-5           0.
      9410.0    8.6990E-5           0.
      9420.0    8.9796E-5           0.
      9430.0    8.6990E-5           0.
      9440.0    8.9796E-5           0.
      9450.0    8.8393E-5           0.
      9460.0    8.8393E-5           0.
      9470.0    8.6990E-5           0.
      9480.0    9.1199E-5           0.
      9490.0    8.8393E-5           0.
      9500.0    9.1199E-5           0.
      9510.0    9.1199E-5           0.
      9520.0    9.1199E-5           0.
      9530.0    8.8393E-5           0.
      9540.0    8.9796E-5           0.
      9550.0    8.5587E-5           0.
      9560.0    8.6990E-5           0.
      9570.0    9.2602E-5           0.
      9580.0    8.6990E-5           0.
      9590.0    8.2781E-5           0.
      9600.0    8.5587E-5           0.
      9610.0    8.6990E-5           0.
      9620.0    8.6990E-5           0.
      9630.0    8.8393E-5           0.
      9640.0    9.2602E-5           0.
      9650.0    8.4184E-5           0.
      9660.0    8.1378E-5           0.
      9670.0    8.4184E-5           0.
      9680.0    7.9975E-5           0.
      9690.0    7.5765E-5           0.
      9700.0    8.2781E-5           0.
      9710.0    8.4184E-5           0.
      9720.0    7.9975E-5           0.
      9730.0    7.8572E-5           0.
      9740.0    7.9975E-5           0.
      9750.0    7.8572E-5           0.
      9760.0    7.7169E-5           0.
      9770.0    8.1378E-5           0.
      9780.0    7.7169E-5           0.
      9790.0    7.7169E-5           0.
      9800.0    7.7169E-5           0.
      9810.0    7.5765E-5           0.
      9820.0    8.1378E-5           0.
      9830.0    7.2959E-5           0.
      9840.0    7.9975E-5           0.
      9850.0    7.7169E-5           0.
      9860.0    8.4184E-5           0.
      9870.0    8.1378E-5           0.
      9880.0    7.7169E-5           0.
      9890.0    7.5765E-5           0.
      9900.0    7.5765E-5           0.
      9910.0    8.2781E-5           0.
      9920.0    7.8572E-5           0.
      9930.0    7.8572E-5           0.
      9940.0    7.7169E-5           0.
      9950.0    7.8572E-5           0.
      9960.0    8.4184E-5           0.
      9970.0    8.5587E-5           0.
      9980.0    7.8572E-5           0.
      9990.0    7.7169E-5           0.
     10000.0    7.5765E-5           0.
     10010.0    7.4362E-5           0.
     10020.0    7.0153E-5           0.
     10030.0    7.4362E-5           0.
     10040.0    7.7169E-5           0.
     10050.0    7.2959E-5           0.
     10060.0    6.8750E-5           0.
     10070.0    7.7169E-5           0.
     10080.0    7.2959E-5           0.
     10090.0    7.2959E-5           0.
     10100.0    7.1556E-5           0.
     10110.0    6.5944E-5           0.
     10120.0    6.7347E-5           0.
     10130.0    6.1735E-5           0.
     10140.0    6.4541E-5           0.
     10150.0    6.7347E-5           0.
     10160.0    6.8750E-5           0.
     10170.0    7.1556E-5           0.
     10180.0    7.1556E-5           0.
     10190.0    6.3138E-5           0.
     10200.0    6.3138E-5           0.
     10210.0    6.7347E-5           0.
     10220.0    6.8750E-5           0.
     10230.0    7.1556E-5           0.
     10240.0    8.1378E-5           0.
     10250.0    7.0153E-5           0.
     10260.0    6.8750E-5           0.
     10270.0    6.7347E-5           0.
     10280.0    6.5944E-5           0.
     10290.0    6.8750E-5           0.
     10300.0    6.5944E-5           0.
     10310.0    6.8750E-5           0.
     10320.0    6.4541E-5           0.
     10330.0    6.7347E-5           0.
     10340.0    6.0332E-5           0.
     10350.0    6.7347E-5           0.
     10360.0    7.2959E-5           0.
     10370.0    7.0153E-5           0.
     10380.0    6.0332E-5           0.
     10390.0    6.7347E-5           0.
     10400.0    6.4541E-5           0.
     10410.0    6.8750E-5           0.
     10420.0    6.8750E-5           0.
     10430.0    6.4541E-5           0.
     10440.0    6.5944E-5           0.
     10450.0    6.1735E-5           0.
     10460.0    6.7347E-5           0.
     10470.0    6.5944E-5           0.
     10480.0    6.5944E-5           0.
     10490.0    6.1735E-5           0.
     10500.0    6.1735E-5           0.
     10510.0    5.7526E-5           0.
     10520.0    6.3138E-5           0.
     10530.0    6.1735E-5           0.
     10540.0    6.3138E-5           0.
     10550.0    5.8929E-5           0.
     10560.0    6.0332E-5           0.
     10570.0    5.8929E-5           0.
     10580.0    6.1735E-5           0.
     10590.0    6.4541E-5           0.
     10600.0    6.3138E-5           0.
     10610.0    6.1735E-5           0.
     10620.0    6.1735E-5           0.
     10630.0    6.1735E-5           0.
     10640.0    6.4541E-5           0.
     10650.0    6.0332E-5           0.
     10660.0    5.7526E-5           0.
     10670.0    6.1735E-5           0.
     10680.0    6.3138E-5           0.
     10690.0    6.0332E-5           0.
     10700.0    6.7347E-5           0.
     10710.0    5.7526E-5           0.
     10720.0    5.4720E-5           0.
     10730.0    5.7526E-5           0.
     10740.0    6.0332E-5           0.
     10750.0    6.0332E-5           0.
     10760.0    6.0332E-5           0.
     10770.0    5.7526E-5           0.
     10780.0    5.7526E-5           0.
     10790.0    6.4541E-5           0.
     10800.0    6.3138E-5           0.
     10810.0    5.8929E-5           0.
     10820.0    5.7526E-5           0.
     10830.0    6.1735E-5           0.
     10840.0    6.4541E-5           0.
     10850.0    6.4541E-5           0.
     10860.0    5.6123E-5           0.
     10870.0    5.0510E-5           0.
     10880.0    6.0332E-5           0.
     10890.0    6.1735E-5           0.
     10900.0    6.3138E-5           0.
     10910.0    5.4720E-5           0.
     10920.0    5.7526E-5           0.
     10930.0    5.4720E-5           0.
     10940.0    5.3316E-5           0.
     10950.0    5.6123E-5           0.
     10960.0    6.0332E-5           0.
     10970.0    5.6123E-5           0.
     10980.0    5.7526E-5           0.
     10990.0    5.3316E-5           0.
     11000.0    5.4720E-5           0.
