#  Table crwfpc2comp$wfpc2_f547m_003.tab  Thu 11:00:13 20-Jul-95

# WAVELENGTH   THROUGHPUT        error
#  ANGSTROMS TRANSMISSION TRANSMISSION

      1850.0    3.3342E-7           0.
      1860.0    3.3342E-7           0.
      1870.0    7.0363E-7           0.
      1880.0    2.0730E-6           0.
      1890.0    1.1019E-5           0.
      1900.0    1.9033E-6           0.
      1910.0    3.3342E-7           0.
      1920.0    3.8139E-6           0.
      1930.0    1.6376E-5           0.
      1940.0    1.0260E-4           0.
      1950.0    8.7888E-5           0.
      1960.0    8.9659E-7           0.
      1970.0    1.3275E-5           0.
      1980.0    2.1859E-6           0.
      1990.0    4.5700E-7           0.
      2000.0    4.6459E-7           0.
      2010.0    2.7479E-6           0.
      2020.0    2.2101E-5           0.
      2030.0    7.8345E-7           0.
      2040.0    1.9159E-5           0.
      2050.0    2.5496E-5           0.
      2060.0    1.4404E-5           0.
      2070.0    8.8900E-6           0.
      2080.0    2.0635E-6           0.
      2090.0    4.1007E-6           0.
      2100.0    5.1858E-6           0.
      2110.0    3.3342E-7           0.
      2120.0    5.4473E-7           0.
      2130.0    3.6220E-7           0.
      2140.0    1.2811E-6           0.
      2150.0    1.0513E-5           0.
      2160.0    7.6974E-6           0.
      2170.0    3.3342E-7           0.
      2180.0    4.4012E-6           0.
      2190.0    3.7254E-7           0.
      2200.0    3.3342E-7           0.
      2210.0    3.3342E-7           0.
      2220.0    3.3342E-7           0.
      2230.0    3.8603E-6           0.
      2240.0    5.6033E-7           0.
      2250.0    1.0450E-6           0.
      2260.0    3.9204E-7           0.
      2270.0    7.9400E-6           0.
      2280.0    3.3342E-7           0.
      2290.0    3.3342E-7           0.
      2300.0    5.4789E-7           0.
      2310.0    3.3342E-7           0.
      2320.0    4.8578E-7           0.
      2330.0    6.1622E-7           0.
      2340.0    8.5199E-7           0.
      2350.0    1.2073E-6           0.
      2360.0    5.9102E-7           0.
      2370.0    4.8220E-7           0.
      2380.0    2.0783E-6           0.
      2390.0    2.0962E-6           0.
      2400.0    3.7633E-6           0.
      2410.0    5.1668E-6           0.
      2420.0    5.7404E-7           0.
      2430.0    4.7028E-6           0.
      2440.0    1.1145E-6           0.
      2450.0    9.3392E-7           0.
      2460.0    1.8421E-6           0.
      2470.0    3.3342E-7           0.
      2480.0    3.1475E-6           0.
      2490.0    3.2329E-6           0.
      2500.0    7.9916E-7           0.
      2510.0    3.9057E-7           0.
      2520.0    4.0185E-7           0.
      2530.0    2.4337E-6           0.
      2540.0    3.1644E-6           0.
      2550.0    3.3342E-7           0.
      2560.0    3.6600E-7           0.
      2570.0    4.4740E-6           0.
      2580.0    4.6522E-7           0.
      2590.0    1.1810E-6           0.
      2600.0    3.3342E-7           0.
      2610.0    1.9750E-6           0.
      2620.0    6.3899E-7           0.
      2630.0    1.2295E-6           0.
      2640.0    5.6845E-6           0.
      2650.0    1.2073E-6           0.
      2660.0    8.4703E-7           0.
      2670.0    1.9918E-6           0.
      2680.0    1.2780E-6           0.
      2690.0    1.6681E-6           0.
      2700.0    5.8996E-7           0.
      2710.0    4.5130E-6           0.
      2720.0    1.2748E-6           0.
      2730.0    3.3342E-7           0.
      2740.0    4.0037E-6           0.
      2750.0    1.4804E-6           0.
      2760.0    4.8199E-7           0.
      2770.0    1.5806E-6           0.
      2780.0    3.3342E-7           0.
      2790.0    9.0429E-7           0.
      2800.0    3.8498E-7           0.
      2810.0    3.6041E-7           0.
      2820.0    5.5221E-7           0.
      2830.0    4.7081E-6           0.
      2840.0    4.6859E-7           0.
      2850.0    5.0961E-7           0.
      2860.0    5.8954E-7           0.
      2870.0    4.4835E-7           0.
      2880.0    8.1656E-6           0.
      2890.0    5.9218E-7           0.
      2900.0    3.5229E-7           0.
      2910.0    3.3342E-7           0.
      2920.0    3.3342E-7           0.
      2930.0    6.3362E-7           0.
      2940.0    4.3485E-6           0.
      2950.0    9.0914E-6           0.
      2960.0    3.3342E-7           0.
      2970.0    2.3693E-6           0.
      2980.0    2.1764E-6           0.
      2990.0    3.3342E-7           0.
      3000.0    6.4943E-7           0.
      3010.0    4.7482E-6           0.
      3020.0    1.3360E-6           0.
      3030.0    3.3342E-7           0.
      3040.0    1.8210E-6           0.
      3050.0    2.0256E-6           0.
      3060.0    4.7081E-6           0.
      3070.0    3.8245E-6           0.
      3080.0    1.0224E-6           0.
      3090.0    9.4151E-6           0.
      3100.0    4.9327E-7           0.
      3110.0    3.3342E-7           0.
      3120.0    4.7777E-7           0.
      3130.0    6.4490E-7           0.
      3140.0    3.7623E-6           0.
      3150.0    3.3342E-7           0.
      3160.0    3.5334E-7           0.
      3170.0    1.0428E-5           0.
      3180.0    5.6740E-6           0.
      3190.0    3.9974E-6           0.
      3200.0    6.4722E-6           0.
      3210.0    6.0704E-7           0.
      3220.0    5.9523E-6           0.
      3230.0    3.2951E-6           0.
      3240.0    3.3342E-7           0.
      3250.0    3.4185E-7           0.
      3260.0    1.6133E-6           0.
      3270.0    5.9597E-7           0.
      3280.0    3.3342E-7           0.
      3290.0    3.4544E-7           0.
      3300.0    1.9012E-6           0.
      3310.0    3.3342E-7           0.
      3320.0    6.7643E-7           0.
      3330.0    5.7541E-6           0.
      3340.0    4.2452E-7           0.
      3350.0    3.5756E-6           0.
      3360.0    2.6182E-6           0.
      3370.0    9.8675E-7           0.
      3380.0    3.3342E-7           0.
      3390.0    3.5398E-7           0.
      3400.0    3.9362E-7           0.
      3410.0    5.2733E-6           0.
      3420.0    1.5796E-6           0.
      3430.0    4.1745E-6           0.
      3440.0    1.2685E-6           0.
      3450.0    2.5939E-6           0.
      3460.0    4.8620E-7           0.
      3470.0    2.6319E-6           0.
      3480.0    5.6223E-7           0.
      3490.0    4.3116E-7           0.
      3500.0    1.6607E-6           0.
      3510.0    1.8390E-6           0.
      3520.0    3.4723E-7           0.
      3530.0    3.3342E-7           0.
      3540.0    3.3342E-7           0.
      3550.0    1.9718E-6           0.
      3560.0    3.6642E-6           0.
      3570.0    1.1451E-6           0.
      3580.0    4.2895E-6           0.
      3590.0    9.6629E-7           0.
      3600.0    1.0091E-6           0.
      3610.0    3.6958E-6           0.
      3620.0    3.3595E-6           0.
      3630.0    2.0066E-6           0.
      3640.0    3.2930E-6           0.
      3650.0    3.7348E-7           0.
      3660.0    5.7214E-6           0.
      3670.0    6.4068E-6           0.
      3680.0    1.1272E-6           0.
      3690.0    9.3455E-6           0.
      3700.0    1.1145E-5           0.
      3710.0    1.0660E-5           0.
      3720.0    8.7477E-6           0.
      3730.0    1.4235E-5           0.
      3740.0    1.2506E-5           0.
      3750.0    1.3465E-5           0.
      3760.0    1.3476E-5           0.
      3770.0    1.5880E-5           0.
      3780.0    1.6787E-5           0.
      3790.0    1.9022E-5           0.
      3800.0    2.6456E-5           0.
      3810.0    2.9219E-5           0.
      3820.0    3.1422E-5           0.
      3830.0    3.0241E-5           0.
      3840.0    2.8586E-5           0.
      3850.0    2.5148E-5           0.
      3860.0    2.1521E-5           0.
      3870.0    2.3936E-5           0.
      3880.0    2.3841E-5           0.
      3890.0    2.5844E-5           0.
      3900.0    3.0147E-5           0.
      3910.0    3.8572E-5           0.
      3920.0    4.7134E-5           0.
      3930.0    5.1014E-5           0.
      3940.0    4.1524E-5           0.
      3950.0    3.2182E-5           0.
      3960.0    2.5866E-5           0.
      3970.0    2.3567E-5           0.
      3980.0    2.3788E-5           0.
      3990.0    3.0326E-5           0.
      4000.0    4.0385E-5           0.
      4010.0    3.7696E-5           0.
      4020.0    1.6070E-5           0.
      4030.0    4.2926E-6           0.
      4040.0    1.3876E-6           0.
      4050.0    1.2811E-6           0.
      4060.0    5.6392E-7           0.
      4070.0    1.1789E-6           0.
      4080.0    6.0409E-7           0.
      4090.0    1.8379E-6           0.
      4100.0    2.1648E-6           0.
      4110.0    1.5954E-6           0.
      4120.0    1.1177E-6           0.
      4130.0    6.5586E-7           0.
      4140.0    3.3342E-7           0.
      4150.0    4.6216E-7           0.
      4160.0    3.8751E-7           0.
      4170.0    1.7957E-6           0.
      4180.0    3.3342E-7           0.
      4190.0    3.3342E-7           0.
      4200.0    3.8276E-7           0.
      4210.0    9.8633E-7           0.
      4220.0    9.0408E-7           0.
      4230.0    3.3342E-7           0.
      4240.0    1.2105E-6           0.
      4250.0    4.0164E-7           0.
      4260.0    3.3342E-7           0.
      4270.0    3.3342E-7           0.
      4280.0    3.3342E-7           0.
      4290.0    3.3342E-7           0.
      4300.0    3.3342E-7           0.
      4310.0    3.3342E-7           0.
      4320.0    3.3342E-7           0.
      4330.0    3.3342E-7           0.
      4340.0    3.3342E-7           0.
      4350.0    3.3342E-7           0.
      4360.0    3.3342E-7           0.
      4370.0    3.3342E-7           0.
      4380.0    3.6842E-7           0.
      4390.0    6.6947E-7           0.
      4400.0    7.8672E-6           0.
      4410.0    1.3550E-5           0.
      4420.0    2.5897E-5           0.
      4430.0    2.5950E-5           0.
      4440.0    2.4073E-5           0.
      4450.0    1.5774E-5           0.
      4460.0    1.0134E-5           0.
      4470.0    3.2308E-6           0.
      4480.0    2.0952E-6           0.
      4490.0    9.3244E-7           0.
      4500.0    5.2638E-7           0.
      4510.0    4.1039E-7           0.
      4520.0    6.1474E-7           0.
      4530.0    3.3342E-7           0.
      4540.0    3.3342E-7           0.
      4550.0    3.3342E-7           0.
      4560.0    4.3433E-7           0.
      4570.0    3.3342E-7           0.
      4580.0    3.3342E-7           0.
      4590.0    5.8996E-7           0.
      4600.0    1.3297E-6           0.
      4610.0    3.6442E-7           0.
      4620.0    4.8125E-7           0.
      4630.0    1.8737E-6           0.
      4640.0    1.1536E-6           0.
      4650.0    3.3342E-7           0.
      4660.0    6.4110E-7           0.
      4670.0    9.8812E-7           0.
      4680.0    9.8496E-7           0.
      4690.0    8.0707E-7           0.
      4700.0    3.4491E-7           0.
      4710.0    4.8241E-7           0.
      4720.0    1.3729E-6           0.
      4730.0    6.1063E-7           0.
      4740.0    3.9109E-7           0.
      4750.0    7.8398E-7           0.
      4760.0    1.5701E-6           0.
      4770.0    7.7892E-7           0.
      4780.0    1.8421E-6           0.
      4790.0    2.6361E-6           0.
      4800.0    3.6800E-6           0.
      4810.0    4.0744E-6           0.
      4820.0    7.6563E-6           0.
      4830.0    1.2274E-5           0.
      4840.0    2.0224E-5           0.
      4850.0    3.0906E-5           0.
      4860.0    4.8494E-5           0.
      4870.0    6.6198E-5           0.
      4880.0    8.0654E-5           0.
      4890.0    8.7203E-5           0.
      4900.0    9.0166E-5           0.
      4910.0    9.4151E-5           0.
      4920.0    1.1198E-4           0.
      4930.0    1.5669E-4           0.
      4950.0    2.6909E-4           0.
      4952.0    3.7601E-4           0.
      4954.0    3.9826E-4           0.
      4956.0    4.6121E-4           0.
      4958.0    5.8827E-4           0.
      4960.0    6.5260E-4           0.
      4962.0    7.7871E-4           0.
      4964.0    8.8152E-4           0.
      4966.0    0.0010524           0.
      4968.0    0.0012601           0.
      4970.0    0.0014087           0.
      4972.0     0.001704           0.
      4974.0    0.0019581           0.
      4976.0    0.0022512           0.
      4978.0    0.0026129           0.
      4980.0    0.0030737           0.
      4982.0    0.0035398           0.
      4984.0    0.0040216           0.
      4986.0    0.0046775           0.
      4988.0    0.0053302           0.
      4990.0    0.0060251           0.
      4992.0    0.0069973           0.
      4994.0    0.0078356           0.
      4996.0    0.0089311           0.
      4998.0     0.010134           0.
      5000.0     0.011314           0.
      5002.0     0.012769           0.
      5004.0     0.014478           0.
      5006.0     0.016059           0.
      5008.0     0.017894           0.
      5010.0     0.019908           0.
      5012.0     0.022164           0.
      5014.0     0.024653           0.
      5016.0     0.027321           0.
      5018.0     0.030136           0.
      5020.0      0.03311           0.
      5022.0     0.036357           0.
      5024.0       0.0399           0.
      5026.0     0.043549           0.
      5028.0     0.047671           0.
      5030.0     0.051942           0.
      5032.0      0.05636           0.
      5034.0      0.06121           0.
      5036.0     0.066209           0.
      5038.0     0.071386           0.
      5040.0     0.077133           0.
      5042.0     0.082637           0.
      5044.0     0.088784           0.
      5046.0     0.095016           0.
      5048.0      0.10162           0.
      5050.0      0.10819           0.
      5052.0      0.11525           0.
      5054.0      0.12253           0.
      5056.0       0.1298           0.
      5058.0      0.13782           0.
      5060.0      0.14467           0.
      5062.0      0.15342           0.
      5064.0      0.16144           0.
      5066.0      0.16998           0.
      5068.0      0.17883           0.
      5070.0      0.18769           0.
      5072.0      0.19676           0.
      5074.0      0.20635           0.
      5076.0      0.21563           0.
      5078.0      0.22523           0.
      5080.0      0.23461           0.
      5082.0      0.24442           0.
      5084.0      0.25444           0.
      5086.0      0.26435           0.
      5088.0      0.27416           0.
      5090.0       0.2847           0.
      5092.0      0.29482           0.
      5094.0      0.30505           0.
      5096.0      0.31486           0.
      5098.0      0.32519           0.
      5100.0      0.33521           0.
      5102.0      0.34522           0.
      5104.0      0.35609           0.
      5106.0      0.36536           0.
      5108.0      0.37591           0.
      5110.0       0.3854           0.
      5112.0      0.39542           0.
      5114.0      0.40607           0.
      5116.0      0.41556           0.
      5118.0      0.42557           0.
      5120.0      0.43549           0.
      5122.0      0.44508           0.
      5124.0      0.45541           0.
      5126.0      0.46459           0.
      5128.0      0.47397           0.
      5130.0      0.48367           0.
      5132.0      0.49221           0.
      5134.0      0.50202           0.
      5136.0      0.51056           0.
      5138.0      0.51952           0.
      5140.0      0.52849           0.
      5142.0      0.53682           0.
      5144.0      0.54567           0.
      5146.0       0.5539           0.
      5148.0      0.56223           0.
      5150.0      0.57077           0.
      5152.0      0.57857           0.
      5154.0      0.58659           0.
      5156.0      0.59481           0.
      5158.0      0.60167           0.
      5160.0      0.60926           0.
      5162.0      0.61664           0.
      5164.0      0.62444           0.
      5166.0       0.6313           0.
      5168.0      0.63783           0.
      5170.0        0.645           0.
      5172.0      0.65186           0.
      5174.0      0.65924           0.
      5176.0      0.66504           0.
      5178.0      0.67168           0.
      5180.0      0.67706           0.
      5182.0      0.68381           0.
      5184.0       0.6894           0.
      5186.0      0.69635           0.
      5188.0      0.70173           0.
      5190.0      0.70732           0.
      5192.0      0.71302           0.
      5194.0      0.71945           0.
      5196.0      0.72409           0.
      5198.0      0.72957           0.
      5200.0      0.73495           0.
      5202.0       0.7398           0.
      5204.0      0.74507           0.
      5206.0      0.74982           0.
      5208.0      0.75477           0.
      5210.0      0.75994           0.
      5212.0      0.76384           0.
      5214.0      0.76869           0.
      5216.0       0.7728           0.
      5218.0      0.77734           0.
      5220.0      0.78113           0.
      5222.0      0.78567           0.
      5224.0      0.78957           0.
      5226.0      0.79442           0.
      5228.0      0.79811           0.
      5230.0      0.80233           0.
      5232.0       0.8057           0.
      5234.0      0.81002           0.
      5236.0      0.81287           0.
      5238.0      0.81625           0.
      5240.0      0.82067           0.
      5242.0      0.82384           0.
      5244.0      0.82753           0.
      5246.0      0.83006           0.
      5248.0      0.83312           0.
      5250.0      0.83691           0.
      5252.0      0.83976           0.
      5254.0      0.84218           0.
      5256.0      0.84556           0.
      5258.0      0.84872           0.
      5260.0      0.85136           0.
      5262.0      0.85347           0.
      5264.0      0.85631           0.
      5266.0      0.85906           0.
      5268.0      0.86201           0.
      5270.0      0.86454           0.
      5272.0      0.86601           0.
      5274.0      0.86897           0.
      5276.0      0.87013           0.
      5278.0      0.87276           0.
      5280.0       0.8754           0.
      5282.0      0.87666           0.
      5284.0      0.87909           0.
      5286.0      0.88173           0.
      5288.0      0.88173           0.
      5290.0      0.88531           0.
      5292.0      0.88637           0.
      5294.0        0.887           0.
      5296.0      0.88974           0.
      5298.0      0.89058           0.
      5300.0      0.89227           0.
      5302.0      0.89417           0.
      5304.0      0.89575           0.
      5306.0      0.89659           0.
      5308.0      0.89775           0.
      5310.0       0.8986           0.
      5312.0      0.89965           0.
      5314.0      0.90081           0.
      5316.0      0.90155           0.
      5318.0      0.90387           0.
      5320.0      0.90419           0.
      5322.0      0.90408           0.
      5324.0      0.90629           0.
      5326.0      0.90535           0.
      5328.0      0.90724           0.
      5330.0      0.90777           0.
      5332.0      0.90819           0.
      5334.0      0.90925           0.
      5336.0      0.90946           0.
      5338.0      0.90988           0.
      5340.0      0.91009           0.
      5342.0      0.91083           0.
      5344.0      0.91062           0.
      5346.0      0.91157           0.
      5348.0      0.91199           0.
      5350.0       0.9122           0.
      5352.0      0.91178           0.
      5354.0      0.91252           0.
      5356.0      0.91167           0.
      5358.0      0.91252           0.
      5360.0      0.91336           0.
      5362.0      0.91325           0.
      5364.0      0.91273           0.
      5366.0      0.91325           0.
      5368.0      0.91262           0.
      5370.0      0.91188           0.
      5372.0      0.91167           0.
      5374.0      0.91294           0.
      5376.0      0.91241           0.
      5378.0      0.91114           0.
      5380.0      0.91283           0.
      5382.0      0.91209           0.
      5384.0       0.9123           0.
      5386.0      0.91146           0.
      5388.0      0.91146           0.
      5390.0      0.91262           0.
      5392.0      0.91167           0.
      5394.0      0.91178           0.
      5396.0      0.91136           0.
      5398.0      0.91125           0.
      5400.0      0.91209           0.
      5402.0      0.91104           0.
      5404.0      0.91062           0.
      5406.0      0.91114           0.
      5408.0      0.91178           0.
      5410.0      0.90988           0.
      5412.0       0.9103           0.
      5414.0      0.90967           0.
      5416.0      0.90988           0.
      5418.0      0.90977           0.
      5420.0       0.9103           0.
      5422.0      0.90872           0.
      5424.0      0.90977           0.
      5426.0      0.90914           0.
      5428.0      0.90893           0.
      5430.0      0.90904           0.
      5432.0      0.90861           0.
      5434.0      0.90767           0.
      5436.0       0.9084           0.
      5438.0      0.90745           0.
      5440.0      0.90767           0.
      5442.0      0.90714           0.
      5444.0      0.90767           0.
      5446.0      0.90566           0.
      5448.0      0.90693           0.
      5450.0      0.90682           0.
      5452.0      0.90661           0.
      5454.0      0.90724           0.
      5456.0      0.90619           0.
      5458.0      0.90587           0.
      5460.0      0.90545           0.
      5462.0      0.90492           0.
      5464.0      0.90577           0.
      5466.0      0.90524           0.
      5468.0      0.90471           0.
      5470.0      0.90524           0.
      5472.0      0.90598           0.
      5474.0      0.90397           0.
      5476.0      0.90471           0.
      5478.0      0.90397           0.
      5480.0      0.90313           0.
      5482.0      0.90366           0.
      5484.0      0.90376           0.
      5486.0      0.90345           0.
      5488.0      0.90197           0.
      5490.0      0.90334           0.
      5492.0      0.90218           0.
      5494.0       0.9005           0.
      5496.0      0.90176           0.
      5498.0      0.90144           0.
      5500.0      0.90081           0.
      5502.0      0.90007           0.
      5504.0      0.90071           0.
      5506.0      0.90018           0.
      5508.0      0.89818           0.
      5510.0      0.89796           0.
      5512.0      0.89818           0.
      5514.0      0.89754           0.
      5516.0      0.89744           0.
      5518.0       0.8968           0.
      5520.0      0.89691           0.
      5522.0       0.8948           0.
      5524.0      0.89501           0.
      5526.0      0.89491           0.
      5528.0      0.89354           0.
      5530.0      0.89375           0.
      5532.0      0.89301           0.
      5534.0      0.89174           0.
      5536.0      0.89206           0.
      5538.0      0.89016           0.
      5540.0      0.88963           0.
      5542.0      0.88974           0.
      5544.0      0.88974           0.
      5546.0      0.88826           0.
      5548.0      0.88647           0.
      5550.0      0.88679           0.
      5552.0      0.88489           0.
      5554.0      0.88447           0.
      5556.0      0.88426           0.
      5558.0      0.88383           0.
      5560.0       0.8831           0.
      5562.0      0.88141           0.
      5564.0      0.88109           0.
      5566.0      0.88036           0.
      5568.0      0.87835           0.
      5570.0      0.87761           0.
      5572.0      0.87561           0.
      5574.0      0.87635           0.
      5576.0      0.87445           0.
      5578.0       0.8735           0.
      5580.0      0.87224           0.
      5582.0      0.87129           0.
      5584.0      0.87055           0.
      5586.0      0.86928           0.
      5588.0      0.86844           0.
      5590.0       0.8676           0.
      5592.0      0.86654           0.
      5594.0      0.86549           0.
      5596.0      0.86485           0.
      5598.0      0.86348           0.
      5600.0      0.86222           0.
      5602.0      0.86148           0.
      5604.0      0.86032           0.
      5606.0      0.85853           0.
      5608.0        0.858           0.
      5610.0      0.85674           0.
      5612.0      0.85526           0.
      5614.0      0.85378           0.
      5616.0      0.85357           0.
      5618.0      0.85262           0.
      5620.0      0.85073           0.
      5622.0      0.84935           0.
      5624.0      0.84851           0.
      5626.0      0.84735           0.
      5628.0      0.84598           0.
      5630.0       0.8444           0.
      5632.0      0.84229           0.
      5634.0      0.84176           0.
      5636.0       0.8405           0.
      5638.0      0.83902           0.
      5640.0      0.83702           0.
      5642.0      0.83712           0.
      5644.0      0.83544           0.
      5646.0      0.83459           0.
      5648.0      0.83196           0.
      5650.0      0.83196           0.
      5652.0      0.83016           0.
      5654.0      0.82753           0.
      5656.0      0.82753           0.
      5658.0      0.82531           0.
      5660.0      0.82426           0.
      5662.0      0.82289           0.
      5664.0      0.82162           0.
      5666.0      0.82036           0.
      5668.0      0.81825           0.
      5670.0       0.8174           0.
      5672.0      0.81561           0.
      5674.0      0.81371           0.
      5676.0      0.81308           0.
      5678.0      0.81139           0.
      5680.0      0.80939           0.
      5682.0      0.80791           0.
      5684.0       0.8056           0.
      5686.0      0.80507           0.
      5688.0      0.80222           0.
      5690.0      0.80138           0.
      5692.0      0.79874           0.
      5694.0      0.79769           0.
      5696.0      0.79579           0.
      5698.0      0.79305           0.
      5700.0      0.79495           0.
      5702.0      0.79294           0.
      5704.0      0.79125           0.
      5706.0      0.79009           0.
      5708.0      0.78714           0.
      5710.0      0.78482           0.
      5712.0      0.78303           0.
      5714.0      0.78029           0.
      5716.0       0.7786           0.
      5718.0      0.77533           0.
      5720.0      0.77206           0.
      5722.0      0.76974           0.
      5724.0        0.767           0.
      5726.0      0.76479           0.
      5728.0      0.76194           0.
      5730.0      0.75836           0.
      5732.0      0.75509           0.
      5734.0      0.75182           0.
      5736.0      0.74834           0.
      5738.0      0.74507           0.
      5740.0      0.74054           0.
      5742.0      0.73663           0.
      5744.0      0.73263           0.
      5746.0       0.7283           0.
      5748.0      0.72335           0.
      5750.0      0.71829           0.
      5752.0      0.71344           0.
      5754.0      0.70785           0.
      5756.0      0.70089           0.
      5758.0      0.69635           0.
      5760.0      0.69013           0.
      5762.0      0.68233           0.
      5764.0      0.67695           0.
      5766.0      0.66989           0.
      5768.0      0.66209           0.
      5770.0      0.65449           0.
      5772.0      0.64553           0.
      5774.0      0.63752           0.
      5776.0      0.62876           0.
      5778.0      0.61917           0.
      5780.0         0.61           0.
      5782.0      0.60019           0.
      5784.0      0.58922           0.
      5786.0      0.57973           0.
      5788.0      0.56887           0.
      5790.0      0.55822           0.
      5792.0      0.54747           0.
      5794.0      0.53545           0.
      5796.0      0.52322           0.
      5798.0      0.51151           0.
      5800.0       0.4997           0.
      5802.0      0.48663           0.
      5804.0       0.4745           0.
      5806.0      0.46258           0.
      5808.0      0.44877           0.
      5810.0      0.43633           0.
      5812.0      0.42378           0.
      5814.0      0.41071           0.
      5816.0      0.39805           0.
      5818.0      0.38487           0.
      5820.0      0.37222           0.
      5822.0      0.36009           0.
      5824.0      0.34712           0.
      5826.0        0.335           0.
      5828.0      0.32266           0.
      5830.0      0.31032           0.
      5832.0      0.29872           0.
      5834.0      0.28691           0.
      5836.0      0.27553           0.
      5838.0      0.26467           0.
      5840.0      0.25391           0.
      5842.0      0.24358           0.
      5844.0      0.23303           0.
      5846.0      0.22375           0.
      5848.0      0.21374           0.
      5850.0      0.20467           0.
      5852.0      0.19581           0.
      5854.0      0.18653           0.
      5856.0      0.17841           0.
      5858.0      0.17061           0.
      5860.0      0.16312           0.
      5862.0      0.15585           0.
      5864.0      0.14847           0.
      5866.0      0.14161           0.
      5868.0      0.13507           0.
      5870.0      0.12864           0.
      5872.0      0.12284           0.
      5874.0      0.11704           0.
      5876.0      0.11156           0.
      5878.0      0.10618           0.
      5880.0      0.10128           0.
      5882.0     0.096629           0.
      5884.0     0.091948           0.
      5886.0      0.08755           0.
      5888.0     0.083565           0.
      5890.0     0.079621           0.
      5892.0     0.075762           0.
      5894.0     0.072145           0.
      5896.0     0.068549           0.
      5898.0     0.065439           0.
      5900.0     0.062402           0.
      5902.0     0.059355           0.
      5904.0     0.056539           0.
      5906.0      0.05404           0.
      5908.0     0.051299           0.
      5910.0     0.048958           0.
      5912.0     0.046659           0.
      5914.0      0.04455           0.
      5916.0     0.042578           0.
      5918.0     0.040575           0.
      5920.0      0.03873           0.
      5922.0     0.037011           0.
      5924.0     0.035324           0.
      5926.0     0.033827           0.
      5928.0     0.032308           0.
      5930.0     0.030684           0.
      5932.0      0.02924           0.
      5934.0     0.027964           0.
      5936.0     0.026667           0.
      5938.0     0.025391           0.
      5940.0      0.02634           0.
      5950.0     0.020783           0.
      5960.0     0.016987           0.
      5970.0      0.01355           0.
      5980.0     0.011156           0.
      5990.0    0.0089702           0.
      6000.0    0.0074475           0.
      6010.0    0.0060567           0.
      6020.0    0.0050761           0.
      6030.0    0.0041682           0.
      6040.0    0.0035166           0.
      6050.0    0.0029071           0.
      6060.0    0.0024706           0.
      6070.0    0.0020614           0.
      6080.0    0.0017651           0.
      6090.0    0.0014836           0.
      6100.0    0.0012769           0.
      6110.0    0.0010819           0.
      6120.0    9.3888E-4           0.
      6130.0    8.0001E-4           0.
      6140.0    6.9783E-4           0.
      6150.0    5.9871E-4           0.
      6160.0    5.2564E-4           0.
      6170.0    4.5415E-4           0.
      6180.0    4.0037E-4           0.
      6190.0    3.4744E-4           0.
      6200.0    3.0737E-4           0.
      6210.0    2.6815E-4           0.
      6220.0    2.3904E-4           0.
      6230.0    2.0952E-4           0.
      6240.0    1.8716E-4           0.
      6250.0    1.6523E-4           0.
      6260.0    1.4857E-4           0.
      6270.0    1.3128E-4           0.
      6280.0    1.1852E-4           0.
      6290.0    1.0522E-4           0.
      6300.0    9.5174E-5           0.
      6310.0    8.5020E-5           0.
      6320.0    7.7217E-5           0.
      6330.0    6.9309E-5           0.
      6340.0    6.3140E-5           0.
      6350.0    5.6634E-5           0.
      6360.0    5.1889E-5           0.
      6370.0    4.6891E-5           0.
      6380.0    4.3158E-5           0.
      6390.0    3.8846E-5           0.
      6400.0    3.5788E-5           0.
      6410.0    3.2477E-5           0.
      6420.0    2.9683E-5           0.
      6430.0    2.6846E-5           0.
      6440.0    2.4769E-5           0.
      6450.0    2.2523E-5           0.
      6460.0    2.0741E-5           0.
      6470.0    1.8664E-5           0.
      6480.0    1.7187E-5           0.
      6490.0    1.5448E-5           0.
      6500.0    1.4362E-5           0.
      6510.0    1.3170E-5           0.
      6520.0    1.2084E-5           0.
      6530.0    1.1072E-5           0.
      6540.0    1.0285E-5           0.
      6550.0    9.3434E-6           0.
      6560.0    8.6918E-6           0.
      6570.0    7.8746E-6           0.
      6580.0    7.5045E-6           0.
      6590.0    6.8012E-6           0.
      6600.0    6.2318E-6           0.
      6610.0    5.7109E-6           0.
      6620.0    5.2986E-6           0.
      6630.0    4.7882E-6           0.
      6640.0    4.4940E-6           0.
      6650.0    4.1587E-6           0.
      6660.0    3.8350E-6           0.
      6670.0    3.4575E-6           0.
      6680.0    3.1907E-6           0.
      6690.0    2.9219E-6           0.
      6700.0    2.7184E-6           0.
      6710.0    2.4948E-6           0.
      6720.0    2.3145E-6           0.
      6730.0    2.2470E-6           0.
      6740.0    2.1015E-6           0.
      6750.0    1.9771E-6           0.
      6760.0    1.7715E-6           0.
      6770.0    1.6439E-6           0.
      6780.0    1.5848E-6           0.
      6790.0    1.3940E-6           0.
      6800.0    1.3434E-6           0.
      6810.0    1.3086E-6           0.
      6820.0    1.2696E-6           0.
      6830.0    1.1230E-6           0.
      6840.0    1.0149E-6           0.
      6850.0    1.0513E-6           0.
      6860.0    1.0079E-6           0.
      6870.0    9.1410E-7           0.
      6880.0    8.8900E-7           0.
      6890.0    9.3223E-7           0.
      6900.0    7.7111E-7           0.
      6910.0    5.9566E-7           0.
      6920.0    4.7070E-7           0.
      6930.0    6.8296E-7           0.
      6940.0    5.7151E-7           0.
      6950.0    5.6624E-7           0.
      6960.0    5.1763E-7           0.
      6970.0    4.8019E-7           0.
      6980.0    5.7720E-7           0.
      6990.0    3.6262E-7           0.
      7000.0    5.5010E-7           0.
      7010.0    3.6874E-7           0.
      7020.0    5.6065E-7           0.
      7030.0    3.3342E-7           0.
      7040.0    4.0185E-7           0.
      7050.0    5.5980E-7           0.
      7060.0    4.8800E-7           0.
      7070.0    3.3342E-7           0.
      7080.0    3.3342E-7           0.
      7090.0    3.3342E-7           0.
      7100.0    4.6701E-7           0.
      7110.0    3.3342E-7           0.
      7120.0    3.3342E-7           0.
      7130.0    3.4554E-7           0.
      7140.0    3.3342E-7           0.
      7150.0    3.9594E-7           0.
      7160.0    4.1387E-7           0.
      7170.0    3.3342E-7           0.
      7180.0    3.3342E-7           0.
      7190.0    3.3342E-7           0.
      7200.0    3.3342E-7           0.
      7210.0    3.3342E-7           0.
      7220.0    3.3342E-7           0.
      7230.0    3.3342E-7           0.
      7240.0    3.3342E-7           0.
      7250.0    3.3342E-7           0.
      7260.0    3.3342E-7           0.
      7270.0    3.3342E-7           0.
      7280.0    3.3342E-7           0.
      7290.0    3.3342E-7           0.
      7300.0    3.3342E-7           0.
      7310.0    3.3342E-7           0.
      7320.0    3.3342E-7           0.
      7330.0    3.3342E-7           0.
      7340.0    3.3342E-7           0.
      7350.0    3.3342E-7           0.
      7360.0    3.3342E-7           0.
      7370.0    3.3342E-7           0.
      7380.0    3.3342E-7           0.
      7390.0    3.3342E-7           0.
      7400.0    3.3342E-7           0.
      7410.0    3.3342E-7           0.
      7420.0    3.3342E-7           0.
      7430.0    3.3342E-7           0.
      7440.0    3.3342E-7           0.
      7450.0    3.3342E-7           0.
      7460.0    3.3342E-7           0.
      7470.0    3.3342E-7           0.
      7480.0    3.3342E-7           0.
      7490.0    3.3342E-7           0.
      7500.0    3.3342E-7           0.
      7510.0    3.3342E-7           0.
      7520.0    3.9689E-7           0.
      7530.0    3.3342E-7           0.
      7540.0    3.3342E-7           0.
      7550.0    3.3342E-7           0.
      7560.0    3.3342E-7           0.
      7570.0    3.3342E-7           0.
      7580.0    3.3342E-7           0.
      7590.0    3.3342E-7           0.
      7600.0    4.1387E-7           0.
      7610.0    3.3342E-7           0.
      7620.0    3.5398E-7           0.
      7630.0    3.3342E-7           0.
      7640.0    6.3530E-7           0.
      7650.0    3.3679E-7           0.
      7660.0    7.2577E-7           0.
      7670.0    6.2529E-7           0.
      7680.0    5.6824E-7           0.
      7690.0    6.0884E-7           0.
      7700.0    4.4403E-7           0.
      7710.0    4.7935E-7           0.
      7720.0    3.3342E-7           0.
      7730.0    3.3342E-7           0.
      7740.0    3.3342E-7           0.
      7750.0    3.5450E-7           0.
      7760.0    4.4266E-7           0.
      7770.0    3.3342E-7           0.
      7780.0    3.5071E-7           0.
      7790.0    7.3790E-7           0.
      7800.0    1.3286E-6           0.
      7810.0    6.0546E-7           0.
      7820.0    1.7230E-6           0.
      7830.0    1.3381E-6           0.
      7840.0    2.7257E-6           0.
      7850.0    1.4404E-6           0.
      7860.0    1.4499E-6           0.
      7870.0    1.8252E-6           0.
      7880.0    1.9718E-6           0.
      7890.0    2.7025E-6           0.
      7900.0    1.8505E-6           0.
      7910.0    1.9760E-6           0.
      7920.0    8.1846E-7           0.
      7930.0    2.1764E-6           0.
      7940.0    7.5445E-7           0.
      7950.0    4.5404E-7           0.
      7960.0    9.7167E-7           0.
      7970.0    1.3592E-6           0.
      7980.0    6.2971E-7           0.
      7990.0    3.9637E-7           0.
      8000.0    8.7804E-7           0.
      8010.0    9.8179E-6           0.
      8020.0    6.9214E-7           0.
      8030.0    9.0229E-6           0.
      8040.0    9.7483E-6           0.
      8050.0    7.0142E-6           0.
      8060.0    3.7127E-6           0.
      8070.0    5.7836E-6           0.
      8080.0    2.2544E-6           0.
      8090.0    5.7414E-6           0.
      8100.0    3.7876E-6           0.
      8110.0    1.5985E-5           0.
      8120.0    5.6002E-6           0.
      8130.0    7.4866E-6           0.
      8140.0    4.1461E-6           0.
      8150.0    1.2263E-5           0.
      8160.0    2.2713E-6           0.
      8170.0    2.2428E-6           0.
      8180.0    4.4055E-6           0.
      8190.0    3.5313E-6           0.
      8200.0    3.5208E-6           0.
      8210.0    1.4973E-5           0.
      8220.0    4.0680E-6           0.
      8230.0    8.1751E-6           0.
      8240.0    1.0639E-5           0.
      8250.0    5.5886E-6           0.
      8260.0    2.1068E-6           0.
      8270.0    3.7918E-6           0.
      8280.0    3.9109E-6           0.
      8290.0    6.3056E-6           0.
      8300.0    2.3672E-6           0.
      8310.0    4.8283E-6           0.
      8320.0    5.9798E-6           0.
      8330.0    1.2643E-5           0.
      8340.0    1.1325E-5           0.
      8350.0    1.1673E-5           0.
      8360.0    4.0765E-6           0.
      8370.0    3.7433E-6           0.
      8380.0    6.2117E-6           0.
      8390.0    4.5605E-6           0.
      8400.0    3.6726E-6           0.
      8410.0    3.7127E-6           0.
      8420.0    1.7314E-5           0.
      8430.0    1.0892E-5           0.
      8440.0    1.4762E-6           0.
      8450.0    2.6393E-6           0.
      8460.0    1.2516E-6           0.
      8470.0    3.0062E-6           0.
      8480.0    4.9116E-6           0.
      8490.0    2.6509E-6           0.
      8500.0    1.1472E-5           0.
      8510.0    7.8957E-6           0.
      8520.0    7.6953E-6           0.
      8530.0    9.0724E-6           0.
      8540.0    8.1941E-6           0.
      8550.0    1.3223E-6           0.
      8560.0    2.1795E-6           0.
      8570.0    3.6579E-6           0.
      8580.0    8.5020E-6           0.
      8590.0    1.2801E-5           0.
      8600.0    1.6618E-6           0.
      8610.0    2.5328E-6           0.
      8620.0    8.1646E-6           0.
      8630.0    7.1649E-6           0.
      8640.0    9.2201E-7           0.
      8650.0    1.7483E-6           0.
      8660.0    8.0781E-6           0.
      8670.0    8.1171E-6           0.
      8680.0    5.7161E-6           0.
      8690.0    1.3212E-5           0.
      8700.0    3.9120E-6           0.
      8710.0    8.6159E-6           0.
      8720.0    1.0576E-5           0.
      8730.0    7.6405E-6           0.
      8740.0    5.8269E-6           0.
      8750.0    1.3708E-5           0.
      8760.0    7.1449E-6           0.
      8770.0    7.2461E-6           0.
      8780.0    2.4431E-6           0.
      8790.0    1.9486E-6           0.
      8800.0    1.6597E-5           0.
      8810.0    4.6754E-6           0.
      8820.0    4.6301E-6           0.
      8830.0    1.2896E-6           0.
      8840.0    5.7773E-6           0.
      8850.0    4.5278E-6           0.
      8860.0    7.9853E-6           0.
      8870.0    1.5247E-6           0.
      8880.0    3.7971E-6           0.
      8890.0    3.3890E-6           0.
      8900.0    1.7462E-6           0.
      8910.0    3.9816E-6           0.
      8920.0    1.3349E-5           0.
      8930.0    4.1102E-6           0.
      8940.0    1.0766E-5           0.
      8950.0    1.5890E-6           0.
      8960.0    9.1410E-6           0.
      8970.0    4.1250E-6           0.
      8980.0    1.3391E-5           0.
      8990.0    5.0866E-6           0.
      9000.0    7.5931E-6           0.
      9010.0    9.4299E-7           0.
      9020.0    3.3226E-6           0.
      9030.0    1.0252E-5           0.
      9040.0    5.9660E-6           0.
      9050.0    7.1903E-6           0.
      9060.0    7.7185E-6           0.
      9070.0    3.8677E-6           0.
      9080.0    2.9851E-6           0.
      9090.0    1.5658E-5           0.
      9100.0    2.1036E-5           0.
      9110.0    1.1209E-5           0.
      9120.0    1.3170E-5           0.
      9130.0    7.3727E-6           0.
      9140.0    1.1588E-6           0.
      9150.0    1.3001E-5           0.
      9160.0    2.9915E-6           0.
      9170.0    4.6037E-6           0.
      9180.0    1.6418E-6           0.
      9190.0    3.5566E-6           0.
      9200.0    6.2318E-6           0.
      9210.0    5.8617E-6           0.
      9220.0    6.9056E-6           0.
      9230.0    4.1387E-6           0.
      9240.0    1.2158E-5           0.
      9250.0    3.2793E-6           0.
      9260.0    5.0961E-6           0.
      9270.0    1.8168E-6           0.
      9280.0    1.6333E-6           0.
      9290.0    9.7188E-6           0.
      9300.0    7.9621E-6           0.
      9310.0    3.6157E-6           0.
      9320.0    4.5710E-6           0.
      9330.0    1.9834E-6           0.
      9340.0    5.0698E-6           0.
      9350.0    1.0014E-5           0.
      9360.0    1.6270E-6           0.
      9370.0    1.6681E-5           0.
      9380.0    2.5106E-6           0.
      9390.0    5.4958E-7           0.
      9400.0    1.5469E-6           0.
      9410.0    8.1814E-6           0.
      9420.0    1.1430E-5           0.
      9430.0    1.0241E-5           0.
      9440.0    5.4251E-6           0.
      9450.0    1.0390E-5           0.
      9460.0    6.9983E-6           0.
      9470.0    9.5374E-6           0.
      9480.0    9.2064E-6           0.
      9490.0    3.1560E-6           0.
      9500.0    8.8457E-7           0.
      9510.0    5.4557E-6           0.
      9520.0    9.0577E-6           0.
      9530.0    3.1834E-6           0.
      9540.0    4.4339E-6           0.
      9550.0    2.1078E-6           0.
      9560.0    5.8553E-6           0.
      9570.0    4.1661E-6           0.
      9580.0    1.7251E-6           0.
      9590.0    3.1022E-6           0.
      9600.0    1.6080E-6           0.
      9610.0    3.1675E-6           0.
      9620.0    1.1609E-6           0.
      9630.0    5.1784E-6           0.
      9640.0    1.0026E-5           0.
      9650.0    1.4256E-5           0.
      9660.0    2.1711E-6           0.
      9670.0    4.1155E-6           0.
      9680.0    7.7776E-6           0.
      9690.0    1.0402E-5           0.
      9700.0    1.4203E-5           0.
      9710.0    2.2439E-6           0.
      9720.0    5.8437E-6           0.
      9730.0    1.9170E-5           0.
      9740.0    8.2394E-6           0.
      9750.0    7.1765E-6           0.
      9760.0    3.5313E-7           0.
      9770.0    6.5629E-6           0.
      9780.0    7.5772E-7           0.
      9790.0    5.5263E-6           0.
      9800.0    6.5260E-6           0.
      9810.0    1.1114E-6           0.
      9820.0    9.0661E-7           0.
      9830.0    6.5333E-6           0.
      9840.0    3.5029E-6           0.
      9850.0    9.7125E-6           0.
      9860.0    3.3004E-6           0.
      9870.0    5.8553E-6           0.
      9880.0    1.0402E-5           0.
      9890.0    1.1725E-6           0.
      9900.0    6.9245E-6           0.
      9910.0    8.5368E-6           0.
      9920.0    2.7574E-6           0.
      9930.0    1.7651E-5           0.
      9940.0    6.2940E-6           0.
      9950.0    1.3297E-6           0.
      9960.0    1.6998E-6           0.
      9970.0    5.2691E-6           0.
      9980.0    3.5545E-6           0.
      9990.0    1.7272E-5           0.
     10000.0    1.3096E-6           0.
     10010.0    6.7347E-6           0.
     10020.0    9.9518E-7           0.
     10030.0    3.8709E-6           0.
     10040.0    1.4836E-6           0.
     10050.0    1.0163E-5           0.
     10060.0    9.9476E-6           0.
     10070.0    4.4603E-6           0.
     10080.0    1.1704E-5           0.
     10090.0    1.1609E-6           0.
     10100.0    5.5095E-6           0.
     10110.0    1.2917E-5           0.
     10120.0    9.7705E-7           0.
     10130.0    3.1043E-6           0.
     10140.0    4.9148E-6           0.
     10150.0    1.2717E-5           0.
     10160.0    1.6080E-5           0.
     10170.0    1.3012E-5           0.
     10180.0    1.2632E-5           0.
     10190.0    1.0093E-5           0.
     10200.0    7.1502E-6           0.
     10210.0    7.1533E-6           0.
     10220.0    1.8896E-5           0.
     10230.0    5.2606E-6           0.
     10240.0    1.1082E-6           0.
     10250.0    1.9581E-6           0.
     10260.0    1.1588E-5           0.
     10270.0    1.6101E-5           0.
     10280.0    6.4448E-6           0.
     10290.0    9.4647E-6           0.
     10300.0    8.7719E-6           0.
     10310.0    9.2770E-6           0.
     10320.0    1.7599E-6           0.
     10330.0    4.7207E-6           0.
     10340.0    1.9128E-6           0.
     10350.0    1.6502E-5           0.
     10360.0    5.1204E-6           0.
     10370.0    1.0063E-5           0.
     10380.0    2.2934E-5           0.
     10390.0    1.3402E-5           0.
     10400.0    1.3033E-5           0.
     10410.0    1.0494E-5           0.
     10420.0    4.9875E-6           0.
     10430.0    6.9667E-6           0.
     10440.0    1.3666E-5           0.
     10450.0    1.3043E-5           0.
     10460.0    1.9634E-5           0.
     10470.0    1.8252E-5           0.
     10480.0    1.7957E-5           0.
     10490.0    2.1627E-5           0.
     10500.0    3.1032E-5           0.
     10510.0    2.3493E-5           0.
     10520.0    3.0189E-5           0.
     10530.0    2.8586E-5           0.
     10540.0    2.0867E-5           0.
     10550.0    2.7943E-5           0.
     10560.0    1.9454E-5           0.
     10570.0    2.3177E-5           0.
     10580.0    2.6414E-5           0.
     10590.0    2.1247E-5           0.
     10600.0    2.5781E-5           0.
     10610.0    2.3124E-5           0.
     10620.0    2.8217E-5           0.
     10630.0    1.7451E-5           0.
     10640.0    2.9356E-5           0.
     10650.0    2.9292E-5           0.
     10660.0    3.1053E-5           0.
     10670.0    3.1401E-5           0.
     10680.0    3.3194E-5           0.
     10690.0    2.1374E-5           0.
     10700.0    3.0611E-5           0.
     10710.0    2.5127E-5           0.
     10720.0    3.0663E-5           0.
     10730.0    3.6146E-5           0.
     10740.0    4.0322E-5           0.
     10750.0    4.3264E-5           0.
     10760.0    3.7317E-5           0.
     10770.0    4.3781E-5           0.
     10780.0    2.7584E-5           0.
     10790.0    4.2167E-5           0.
     10800.0    3.9605E-5           0.
     10810.0    3.7211E-5           0.
     10820.0    4.6859E-5           0.
     10830.0    4.3949E-5           0.
     10840.0    4.1608E-5           0.
     10850.0    4.3823E-5           0.
     10860.0    3.9014E-5           0.
     10870.0    3.5113E-5           0.
     10880.0    3.8972E-5           0.
     10890.0    3.3784E-5           0.
     10900.0    3.5830E-5           0.
     10910.0    3.9700E-5           0.
     10920.0    4.1809E-5           0.
     10930.0    3.3711E-5           0.
     10940.0    3.9890E-5           0.
     10950.0    4.3802E-5           0.
     10960.0    4.3274E-5           0.
     10970.0    4.1165E-5           0.
     10980.0    4.1999E-5           0.
     10990.0    3.8055E-5           0.
     11000.0    4.5805E-5           0.
