#  Table crwfpc2comp$wfpc2_f622w_003.tab  Thu 11:00:15 20-Jul-95

# WAVELENGTH   THROUGHPUT        error
#  ANGSTROMS TRANSMISSION TRANSMISSION

      1850.0    1.5699E-4           0.
      1852.0    4.0077E-5           0.
      1854.0    7.4846E-6           0.
      1856.0    3.0732E-5           0.
      1858.0    1.1294E-4           0.
      1860.0    3.5961E-5           0.
      1862.0    2.3673E-5           0.
      1864.0    4.1897E-5           0.
      1866.0    4.2752E-5           0.
      1868.0    7.2579E-5           0.
      1870.0    7.1326E-5           0.
      1872.0    1.4794E-5           0.
      1874.0    1.3442E-5           0.
      1876.0    6.1453E-5           0.
      1878.0    3.9710E-5           0.
      1880.0    2.0392E-5           0.
      1882.0    3.1537E-5           0.
      1884.0    1.7568E-5           0.
      1886.0    8.1467E-6           0.
      1888.0    6.6584E-6           0.
      1890.0    1.4267E-5           0.
      1892.0    4.7355E-5           0.
      1894.0    4.3776E-5           0.
      1896.0    2.6586E-5           0.
      1898.0    1.3064E-5           0.
      1900.0    2.6367E-6           0.
      1902.0    4.0505E-7           0.
      1904.0    7.3871E-7           0.
      1906.0    8.0811E-6           0.
      1908.0    7.1694E-6           0.
      1910.0    6.5977E-7           0.
      1912.0    4.0077E-7           0.
      1914.0    4.6898E-7           0.
      1916.0    3.1438E-7           0.
      1918.0    4.1887E-7           0.
      1920.0    3.1448E-6           0.
      1922.0    6.9785E-6           0.
      1924.0    5.2525E-6           0.
      1926.0    5.3887E-6           0.
      1928.0    5.5041E-6           0.
      1930.0    1.3850E-5           0.
      1932.0    1.0887E-5           0.
      1934.0    2.3553E-6           0.
      1936.0    1.2249E-6           0.
      1938.0    1.5719E-6           0.
      1940.0    4.2235E-6           0.
      1942.0    4.6987E-6           0.
      1944.0    1.1633E-6           0.
      1946.0    9.3209E-7           0.
      1948.0    5.2078E-6           0.
      1950.0    2.0939E-5           0.
      1952.0    1.7896E-5           0.
      1954.0    1.1722E-5           0.
      1956.0    3.1000E-6           0.
      1958.0    1.4824E-6           0.
      1960.0    1.8731E-6           0.
      1962.0    5.6999E-7           0.
      1964.0    1.1623E-6           0.
      1966.0    8.0473E-6           0.
      1968.0    1.4257E-5           0.
      1970.0    1.2448E-5           0.
      1972.0    4.2136E-6           0.
      1974.0    1.1245E-6           0.
      1976.0    8.9123E-7           0.
      1978.0    1.9735E-6           0.
      1980.0    1.4406E-6           0.
      1982.0    1.7777E-6           0.
      1984.0    1.2169E-5           0.
      1986.0    2.8584E-5           0.
      1988.0    2.8057E-5           0.
      1990.0    2.0620E-5           0.
      1992.0    1.3571E-5           0.
      1994.0    7.9350E-6           0.
      1996.0    4.6112E-6           0.
      1998.0    4.8061E-6           0.
      2000.0    7.9449E-6           0.
      2002.0    9.9920E-6           0.
      2004.0    1.1016E-5           0.
      2006.0    8.5206E-6           0.
      2008.0    1.2826E-6           0.
      2010.0    7.3971E-7           0.
      2012.0    3.3665E-6           0.
      2014.0    5.0706E-6           0.
      2016.0    4.3627E-6           0.
      2018.0    3.3446E-6           0.
      2020.0    2.0889E-6           0.
      2022.0    2.0809E-6           0.
      2024.0    1.3870E-6           0.
      2026.0    1.9049E-6           0.
      2028.0    5.4852E-6           0.
      2030.0    7.1873E-6           0.
      2032.0    4.2096E-6           0.
      2034.0    3.6797E-6           0.
      2036.0    4.5526E-6           0.
      2038.0    4.6958E-6           0.
      2040.0    4.7176E-6           0.
      2042.0    4.4213E-6           0.
      2044.0    4.1121E-6           0.
      2046.0    6.3352E-6           0.
      2048.0    8.8854E-6           0.
      2050.0    7.3901E-6           0.
      2052.0    6.1980E-6           0.
      2054.0    6.5341E-6           0.
      2056.0    4.4820E-6           0.
      2058.0    2.6457E-6           0.
      2060.0    2.0849E-6           0.
      2062.0    3.0414E-6           0.
      2064.0    2.6964E-6           0.
      2066.0    2.0093E-6           0.
      2068.0    1.7071E-6           0.
      2070.0    6.3720E-7           0.
      2072.0    3.2989E-7           0.
      2074.0    9.8330E-7           0.
      2076.0    3.5961E-6           0.
      2078.0    2.6715E-6           0.
      2080.0    1.3949E-6           0.
      2082.0    1.1235E-6           0.
      2084.0    7.0203E-7           0.
      2086.0    5.1571E-7           0.
      2088.0    9.9721E-7           0.
      2090.0    1.4973E-6           0.
      2092.0    2.1555E-6           0.
      2094.0    2.7948E-6           0.
      2096.0    1.7837E-6           0.
      2098.0    6.5440E-7           0.
      2100.0    5.6104E-7           0.
      2102.0    9.7067E-7           0.
      2104.0    4.9423E-7           0.
      2106.0    4.8648E-7           0.
      2108.0    7.8176E-7           0.
      2110.0    3.9431E-7           0.
      2112.0    5.0467E-7           0.
      2114.0    2.1903E-6           0.
      2116.0    3.3913E-6           0.
      2118.0    2.4756E-6           0.
      2120.0    2.9051E-6           0.
      2122.0    4.1141E-6           0.
      2124.0    4.0247E-6           0.
      2126.0    2.2549E-6           0.
      2128.0    8.7294E-7           0.
      2130.0    8.7154E-7           0.
      2132.0    1.8453E-6           0.
      2134.0    1.3353E-6           0.
      2136.0    5.3122E-7           0.
      2138.0    6.3164E-7           0.
      2140.0    1.8632E-6           0.
      2142.0    3.4271E-6           0.
      2144.0    3.5574E-6           0.
      2146.0    2.8147E-6           0.
      2148.0    1.6653E-6           0.
      2150.0    6.8940E-7           0.
      2152.0    6.9517E-7           0.
      2154.0    9.8628E-7           0.
      2156.0    6.6574E-7           0.
      2158.0    4.9970E-7           0.
      2160.0    8.2770E-7           0.
      2162.0    1.2328E-6           0.
      2164.0    1.5172E-6           0.
      2166.0    8.5424E-7           0.
      2168.0    4.1042E-7           0.
      2170.0    3.8666E-7           0.
      2172.0    5.5409E-7           0.
      2174.0    6.5838E-7           0.
      2176.0    3.5743E-7           0.
      2178.0    5.1332E-7           0.
      2180.0    1.0787E-6           0.
      2182.0    1.1285E-6           0.
      2184.0    1.9447E-6           0.
      2186.0    2.3514E-6           0.
      2188.0    1.3760E-6           0.
      2190.0    1.1235E-6           0.
      2192.0    1.3223E-6           0.
      2194.0    1.7817E-6           0.
      2196.0    1.3154E-6           0.
      2198.0    1.0161E-6           0.
      2200.0    9.7296E-7           0.
      2202.0    8.1378E-7           0.
      2204.0    4.4472E-7           0.
      2206.0    5.9197E-7           0.
      2208.0    1.1623E-6           0.
      2210.0    1.6942E-6           0.
      2212.0    2.4826E-6           0.
      2214.0    2.4717E-6           0.
      2216.0    2.4239E-6           0.
      2218.0    1.4148E-6           0.
      2220.0    7.0223E-7           0.
      2222.0    7.0064E-7           0.
      2224.0    8.7274E-7           0.
      2226.0    1.1483E-6           0.
      2228.0    6.8880E-7           0.
      2230.0    4.8519E-7           0.
      2232.0    8.0921E-7           0.
      2234.0    6.1473E-7           0.
      2236.0    3.2859E-7           0.
      2238.0    3.2094E-7           0.
      2240.0    4.0684E-7           0.
      2242.0    9.6997E-7           0.
      2244.0    1.2826E-6           0.
      2246.0    6.9934E-7           0.
      2248.0    4.2434E-7           0.
      2250.0    5.5409E-7           0.
      2252.0    8.2621E-7           0.
      2254.0    1.0161E-6           0.
      2256.0    1.0648E-6           0.
      2258.0    7.2957E-7           0.
      2260.0    6.9049E-7           0.
      2262.0    7.4329E-7           0.
      2264.0    8.7075E-7           0.
      2266.0    6.7608E-7           0.
      2268.0    6.2776E-7           0.
      2270.0    4.2802E-7           0.
      2272.0    3.1438E-7           0.
      2274.0    4.8737E-7           0.
      2276.0    8.3018E-7           0.
      2278.0    1.1652E-6           0.
      2280.0    1.3054E-6           0.
      2282.0    1.3283E-6           0.
      2284.0    8.0036E-7           0.
      2286.0    4.3527E-7           0.
      2288.0    6.0419E-7           0.
      2290.0    1.4406E-6           0.
      2292.0    2.3852E-6           0.
      2294.0    2.3941E-6           0.
      2296.0    1.6793E-6           0.
      2298.0    1.2706E-6           0.
      2300.0    9.5715E-7           0.
      2302.0    5.1422E-7           0.
      2304.0    3.5673E-7           0.
      2306.0    4.9463E-7           0.
      2308.0    6.4019E-7           0.
      2310.0    6.1911E-7           0.
      2312.0    8.6429E-7           0.
      2314.0    1.1732E-6           0.
      2316.0    8.0016E-7           0.
      2318.0    6.7866E-7           0.
      2320.0    1.2488E-6           0.
      2322.0    1.7697E-6           0.
      2324.0    1.5838E-6           0.
      2326.0    7.4965E-7           0.
      2328.0    4.3657E-7           0.
      2330.0    3.6588E-7           0.
      2332.0    3.1438E-7           0.
      2334.0    3.1438E-7           0.
      2336.0    3.1438E-7           0.
      2338.0    3.9660E-7           0.
      2340.0    4.0386E-7           0.
      2342.0    3.1438E-7           0.
      2344.0    3.1438E-7           0.
      2346.0    3.1438E-7           0.
      2348.0    3.1438E-7           0.
      2350.0    3.1438E-7           0.
      2352.0    3.1438E-7           0.
      2354.0    3.1438E-7           0.
      2356.0    3.1438E-7           0.
      2358.0    3.1438E-7           0.
      2360.0    3.1438E-7           0.
      2362.0    3.1438E-7           0.
      2364.0    3.1438E-7           0.
      2366.0    3.8497E-7           0.
      2368.0    8.0682E-7           0.
      2370.0    1.3969E-6           0.
      2372.0    1.1106E-6           0.
      2374.0    4.3150E-7           0.
      2376.0    4.5904E-7           0.
      2378.0    1.4565E-6           0.
      2380.0    2.3484E-6           0.
      2382.0    2.0083E-6           0.
      2384.0    1.7687E-6           0.
      2386.0    1.7469E-6           0.
      2388.0    1.8433E-6           0.
      2390.0    1.9855E-6           0.
      2392.0    1.9656E-6           0.
      2394.0    1.9855E-6           0.
      2396.0    2.5343E-6           0.
      2398.0    3.2412E-6           0.
      2400.0    2.7918E-6           0.
      2402.0    2.0670E-6           0.
      2404.0    2.1813E-6           0.
      2406.0    2.3772E-6           0.
      2408.0    2.2390E-6           0.
      2410.0    2.4488E-6           0.
      2412.0    2.9071E-6           0.
      2414.0    3.0095E-6           0.
      2416.0    2.5502E-6           0.
      2418.0    2.1316E-6           0.
      2420.0    1.7111E-6           0.
      2422.0    1.8731E-6           0.
      2424.0    1.7717E-6           0.
      2426.0    1.3372E-6           0.
      2428.0    1.2289E-6           0.
      2430.0    1.4645E-6           0.
      2432.0    1.7111E-6           0.
      2434.0    1.9169E-6           0.
      2436.0    2.3295E-6           0.
      2438.0    2.2430E-6           0.
      2440.0    1.8264E-6           0.
      2442.0    1.7538E-6           0.
      2444.0    1.8015E-6           0.
      2446.0    1.4695E-6           0.
      2448.0    1.0280E-6           0.
      2450.0    7.8326E-7           0.
      2452.0    1.0141E-6           0.
      2454.0    1.2090E-6           0.
      2456.0    7.8992E-7           0.
      2458.0    5.6373E-7           0.
      2460.0    5.7566E-7           0.
      2462.0    4.3458E-7           0.
      2464.0    4.0157E-7           0.
      2466.0    3.6419E-7           0.
      2468.0    4.4392E-7           0.
      2470.0    7.6606E-7           0.
      2472.0    6.8592E-7           0.
      2474.0    4.5725E-7           0.
      2476.0    3.1696E-7           0.
      2478.0    3.1438E-7           0.
      2480.0    4.6222E-7           0.
      2482.0    1.0946E-6           0.
      2484.0    1.6067E-6           0.
      2486.0    1.2726E-6           0.
      2488.0    8.8059E-7           0.
      2490.0    6.1931E-7           0.
      2492.0    7.3265E-7           0.
      2494.0    6.4625E-7           0.
      2496.0    4.7663E-7           0.
      2498.0    8.0404E-7           0.
      2500.0    8.9620E-7           0.
      2502.0    7.8485E-7           0.
      2504.0    1.3571E-6           0.
      2506.0    1.7518E-6           0.
      2508.0    1.6047E-6           0.
      2510.0    1.6305E-6           0.
      2512.0    1.8324E-6           0.
      2514.0    1.8493E-6           0.
      2516.0    1.3760E-6           0.
      2518.0    9.1221E-7           0.
      2520.0    1.0708E-6           0.
      2522.0    1.2378E-6           0.
      2524.0    1.0340E-6           0.
      2526.0    6.1682E-7           0.
      2528.0    5.5458E-7           0.
      2530.0    4.9374E-7           0.
      2532.0    4.6401E-7           0.
      2534.0    9.5804E-7           0.
      2536.0    1.1841E-6           0.
      2538.0    8.8099E-7           0.
      2540.0    1.0599E-6           0.
      2542.0    8.7015E-7           0.
      2544.0    3.5673E-7           0.
      2546.0    3.1438E-7           0.
      2548.0    3.1438E-7           0.
      2550.0    3.5703E-7           0.
      2552.0    8.2998E-7           0.
      2554.0    1.3472E-6           0.
      2556.0    1.2388E-6           0.
      2558.0    9.5277E-7           0.
      2560.0    9.7445E-7           0.
      2562.0    8.3824E-7           0.
      2564.0    6.0827E-7           0.
      2566.0    7.9350E-7           0.
      2568.0    7.0173E-7           0.
      2570.0    5.3937E-7           0.
      2572.0    4.9463E-7           0.
      2574.0    7.8425E-7           0.
      2576.0    1.1036E-6           0.
      2578.0    1.0569E-6           0.
      2580.0    1.1463E-6           0.
      2582.0    1.5182E-6           0.
      2584.0    1.4496E-6           0.
      2586.0    1.1414E-6           0.
      2588.0    1.1454E-6           0.
      2590.0    1.5490E-6           0.
      2592.0    1.7290E-6           0.
      2594.0    1.3750E-6           0.
      2596.0    1.3810E-6           0.
      2598.0    1.5848E-6           0.
      2600.0    1.6395E-6           0.
      2602.0    1.7150E-6           0.
      2604.0    1.4764E-6           0.
      2606.0    1.0827E-6           0.
      2608.0    1.0539E-6           0.
      2610.0    1.3720E-6           0.
      2612.0    1.5659E-6           0.
      2614.0    1.5689E-6           0.
      2616.0    1.1185E-6           0.
      2618.0    9.0008E-7           0.
      2620.0    9.0594E-7           0.
      2622.0    1.0519E-6           0.
      2624.0    1.4138E-6           0.
      2626.0    1.4158E-6           0.
      2628.0    1.1961E-6           0.
      2630.0    1.0141E-6           0.
      2632.0    9.4551E-7           0.
      2634.0    1.0956E-6           0.
      2636.0    9.3627E-7           0.
      2638.0    5.9773E-7           0.
      2640.0    4.2265E-7           0.
      2642.0    4.8807E-7           0.
      2644.0    7.1863E-7           0.
      2646.0    9.0753E-7           0.
      2648.0    1.0569E-6           0.
      2650.0    1.2030E-6           0.
      2652.0    1.0777E-6           0.
      2654.0    7.1296E-7           0.
      2656.0    8.2084E-7           0.
      2658.0    8.0075E-7           0.
      2660.0    6.5749E-7           0.
      2662.0    6.9308E-7           0.
      2664.0    9.5078E-7           0.
      2666.0    1.1633E-6           0.
      2668.0    1.3631E-6           0.
      2670.0    1.4019E-6           0.
      2672.0    1.3184E-6           0.
      2674.0    1.4396E-6           0.
      2676.0    1.4337E-6           0.
      2678.0    8.0751E-7           0.
      2680.0    6.0588E-7           0.
      2682.0    9.0087E-7           0.
      2684.0    1.1851E-6           0.
      2686.0    1.3840E-6           0.
      2688.0    1.3134E-6           0.
      2690.0    1.3273E-6           0.
      2692.0    1.8552E-6           0.
      2694.0    1.4923E-6           0.
      2696.0    7.3822E-7           0.
      2698.0    5.9137E-7           0.
      2700.0    6.6862E-7           0.
      2702.0    5.2873E-7           0.
      2704.0    4.9602E-7           0.
      2706.0    6.0827E-7           0.
      2708.0    9.7047E-7           0.
      2710.0    1.2975E-6           0.
      2712.0    1.7111E-6           0.
      2714.0    1.9129E-6           0.
      2716.0    1.4923E-6           0.
      2718.0    1.4048E-6           0.
      2720.0    9.7315E-7           0.
      2722.0    6.6743E-7           0.
      2724.0    1.2547E-6           0.
      2726.0    2.0531E-6           0.
      2728.0    1.7290E-6           0.
      2730.0    1.1086E-6           0.
      2732.0    1.0211E-6           0.
      2734.0    1.3472E-6           0.
      2736.0    1.2955E-6           0.
      2738.0    8.5245E-7           0.
      2740.0    7.4468E-7           0.
      2742.0    8.4192E-7           0.
      2744.0    8.0036E-7           0.
      2746.0    9.2424E-7           0.
      2748.0    8.6150E-7           0.
      2750.0    5.6462E-7           0.
      2752.0    7.6894E-7           0.
      2754.0    1.1782E-6           0.
      2756.0    8.0254E-7           0.
      2758.0    7.1465E-7           0.
      2760.0    1.1175E-6           0.
      2762.0    1.3193E-6           0.
      2764.0    1.3850E-6           0.
      2766.0    1.6504E-6           0.
      2768.0    1.5838E-6           0.
      2770.0    9.3776E-7           0.
      2772.0    6.6494E-7           0.
      2774.0    1.0539E-6           0.
      2776.0    1.8900E-6           0.
      2778.0    1.7687E-6           0.
      2780.0    1.2388E-6           0.
      2782.0    1.0777E-6           0.
      2784.0    1.3442E-6           0.
      2786.0    1.6733E-6           0.
      2788.0    1.7250E-6           0.
      2790.0    1.8493E-6           0.
      2792.0    2.0083E-6           0.
      2794.0    1.7667E-6           0.
      2796.0    1.6286E-6           0.
      2798.0    1.6763E-6           0.
      2800.0    1.6027E-6           0.
      2802.0    1.2587E-6           0.
      2804.0    1.3154E-6           0.
      2806.0    1.3402E-6           0.
      2808.0    1.1384E-6           0.
      2810.0    1.3611E-6           0.
      2812.0    1.2050E-6           0.
      2814.0    8.5365E-7           0.
      2816.0    8.1994E-7           0.
      2818.0    7.5104E-7           0.
      2820.0    1.0877E-6           0.
      2822.0    1.9298E-6           0.
      2824.0    2.2619E-6           0.
      2826.0    2.1336E-6           0.
      2828.0    1.9189E-6           0.
      2830.0    1.7846E-6           0.
      2832.0    2.1436E-6           0.
      2834.0    2.4786E-6           0.
      2836.0    2.0869E-6           0.
      2838.0    1.6405E-6           0.
      2840.0    1.0996E-6           0.
      2842.0    8.1974E-7           0.
      2844.0    8.3744E-7           0.
      2846.0    1.0330E-6           0.
      2848.0    1.4039E-6           0.
      2850.0    1.5878E-6           0.
      2852.0    1.3213E-6           0.
      2854.0    1.2348E-6           0.
      2856.0    1.6981E-6           0.
      2858.0    1.9914E-6           0.
      2860.0    1.6743E-6           0.
      2862.0    1.3044E-6           0.
      2864.0    8.3247E-7           0.
      2866.0    7.8882E-7           0.
      2868.0    1.3879E-6           0.
      2870.0    1.7518E-6           0.
      2872.0    1.6753E-6           0.
      2874.0    1.4804E-6           0.
      2876.0    1.3850E-6           0.
      2878.0    1.1662E-6           0.
      2880.0    1.2259E-6           0.
      2882.0    1.6812E-6           0.
      2884.0    1.7329E-6           0.
      2886.0    1.4953E-6           0.
      2888.0    1.4396E-6           0.
      2890.0    1.4993E-6           0.
      2892.0    1.5222E-6           0.
      2894.0    1.6395E-6           0.
      2896.0    1.5957E-6           0.
      2898.0    1.8274E-6           0.
      2900.0    2.1555E-6           0.
      2902.0    1.7320E-6           0.
      2904.0    1.1623E-6           0.
      2906.0    9.6311E-7           0.
      2908.0    1.2438E-6           0.
      2910.0    1.6136E-6           0.
      2912.0    1.5649E-6           0.
      2914.0    1.7946E-6           0.
      2916.0    2.2698E-6           0.
      2918.0    2.2122E-6           0.
      2920.0    1.6484E-6           0.
      2922.0    1.1503E-6           0.
      2924.0    1.1573E-6           0.
      2926.0    1.3074E-6           0.
      2928.0    1.2368E-6           0.
      2930.0    1.0907E-6           0.
      2932.0    1.0082E-6           0.
      2934.0    9.0942E-7           0.
      2936.0    1.1881E-6           0.
      2938.0    1.6683E-6           0.
      2940.0    1.6892E-6           0.
      2942.0    1.8552E-6           0.
      2944.0    1.8871E-6           0.
      2946.0    1.6295E-6           0.
      2948.0    1.3760E-6           0.
      2950.0    1.2627E-6           0.
      2952.0    1.0857E-6           0.
      2954.0    8.8735E-7           0.
      2956.0    1.0270E-6           0.
      2958.0    8.0205E-7           0.
      2960.0    6.1742E-7           0.
      2962.0    9.6381E-7           0.
      2964.0    1.2517E-6           0.
      2966.0    9.2672E-7           0.
      2968.0    8.5206E-7           0.
      2970.0    4.8111E-7           0.
      2972.0    3.1438E-7           0.
      2974.0    3.1438E-7           0.
      2976.0    3.9312E-7           0.
      2978.0    4.9055E-7           0.
      2980.0    1.0091E-6           0.
      2982.0    1.6753E-6           0.
      2984.0    1.3601E-6           0.
      2986.0    7.4060E-7           0.
      2988.0    6.7608E-7           0.
      2990.0    8.4917E-7           0.
      2992.0    9.2702E-7           0.
      2994.0    7.8972E-7           0.
      2996.0    7.6049E-7           0.
      2998.0    9.7494E-7           0.
      3000.0    1.3293E-6           0.
      3002.0    1.3889E-6           0.
      3004.0    1.4039E-6           0.
      3006.0    1.5609E-6           0.
      3008.0    1.1652E-6           0.
      3010.0    8.0493E-7           0.
      3012.0    6.7916E-7           0.
      3014.0    5.4842E-7           0.
      3016.0    6.7369E-7           0.
      3018.0    7.8952E-7           0.
      3020.0    8.4639E-7           0.
      3022.0    1.1463E-6           0.
      3024.0    1.5351E-6           0.
      3026.0    1.6226E-6           0.
      3028.0    1.0499E-6           0.
      3030.0    9.9105E-7           0.
      3032.0    1.9914E-6           0.
      3034.0    2.2977E-6           0.
      3036.0    1.6305E-6           0.
      3038.0    9.9920E-7           0.
      3040.0    7.0690E-7           0.
      3042.0    5.6661E-7           0.
      3044.0    6.2905E-7           0.
      3046.0    6.5232E-7           0.
      3048.0    5.4713E-7           0.
      3050.0    3.6707E-7           0.
      3052.0    3.8497E-7           0.
      3054.0    8.6647E-7           0.
      3056.0    1.4456E-6           0.
      3058.0    1.1314E-6           0.
      3060.0    4.7942E-7           0.
      3062.0    3.2452E-7           0.
      3064.0    4.4124E-7           0.
      3066.0    7.6675E-7           0.
      3068.0    7.7033E-7           0.
      3070.0    4.2434E-7           0.
      3072.0    3.3595E-7           0.
      3074.0    5.6462E-7           0.
      3076.0    1.0111E-6           0.
      3078.0    9.5347E-7           0.
      3080.0    6.5957E-7           0.
      3082.0    4.8151E-7           0.
      3084.0    5.2843E-7           0.
      3086.0    6.3512E-7           0.
      3088.0    5.6840E-7           0.
      3090.0    8.1070E-7           0.
      3092.0    7.5194E-7           0.
      3094.0    6.4048E-7           0.
      3096.0    9.3060E-7           0.
      3098.0    8.9451E-7           0.
      3100.0    4.4383E-7           0.
      3102.0    3.2790E-7           0.
      3104.0    6.7836E-7           0.
      3106.0    1.4794E-6           0.
      3108.0    1.7071E-6           0.
      3110.0    1.2418E-6           0.
      3112.0    5.9445E-7           0.
      3114.0    5.3400E-7           0.
      3116.0    9.8190E-7           0.
      3118.0    1.3462E-6           0.
      3120.0    6.7538E-7           0.
      3122.0    3.8129E-7           0.
      3124.0    4.8876E-7           0.
      3126.0    5.8729E-7           0.
      3128.0    1.0549E-6           0.
      3130.0    1.3701E-6           0.
      3132.0    1.0917E-6           0.
      3134.0    9.4223E-7           0.
      3136.0    6.6415E-7           0.
      3138.0    1.0221E-6           0.
      3140.0    1.8125E-6           0.
      3142.0    1.8761E-6           0.
      3144.0    1.5659E-6           0.
      3146.0    1.3949E-6           0.
      3148.0    1.5381E-6           0.
      3150.0    1.1613E-6           0.
      3152.0    7.0919E-7           0.
      3154.0    5.8292E-7           0.
      3156.0    6.3959E-7           0.
      3158.0    3.8338E-7           0.
      3160.0    3.1438E-7           0.
      3162.0    3.5345E-7           0.
      3164.0    3.5564E-7           0.
      3166.0    4.8737E-7           0.
      3168.0    1.1533E-6           0.
      3170.0    1.2567E-6           0.
      3172.0    5.5140E-7           0.
      3174.0    3.2322E-7           0.
      3176.0    5.9704E-7           0.
      3178.0    1.4287E-6           0.
      3180.0    1.6574E-6           0.
      3182.0    1.3084E-6           0.
      3184.0    1.0927E-6           0.
      3186.0    9.8240E-7           0.
      3188.0    5.4663E-7           0.
      3190.0    3.3148E-7           0.
      3192.0    5.9167E-7           0.
      3194.0    1.0171E-6           0.
      3196.0    1.0072E-6           0.
      3198.0    1.0738E-6           0.
      3200.0    1.3651E-6           0.
      3202.0    1.2458E-6           0.
      3204.0    5.7397E-7           0.
      3206.0    5.3191E-7           0.
      3208.0    1.0509E-6           0.
      3210.0    1.1275E-6           0.
      3212.0    5.6950E-7           0.
      3214.0    5.8262E-7           0.
      3216.0    7.3673E-7           0.
      3218.0    8.0016E-7           0.
      3220.0    4.8330E-7           0.
      3222.0    3.1438E-7           0.
      3224.0    3.1438E-7           0.
      3226.0    3.1805E-7           0.
      3228.0    4.9801E-7           0.
      3230.0    7.5522E-7           0.
      3232.0    5.9922E-7           0.
      3234.0    6.3044E-7           0.
      3236.0    1.0787E-6           0.
      3238.0    1.4595E-6           0.
      3240.0    1.2259E-6           0.
      3242.0    5.7964E-7           0.
      3244.0    4.1638E-7           0.
      3246.0    5.1481E-7           0.
      3248.0    4.2732E-7           0.
      3250.0    3.3376E-7           0.
      3252.0    3.1438E-7           0.
      3254.0    4.1181E-7           0.
      3256.0    7.3384E-7           0.
      3258.0    1.2547E-6           0.
      3260.0    7.7938E-7           0.
      3262.0    6.3601E-7           0.
      3264.0    7.4090E-7           0.
      3266.0    5.5856E-7           0.
      3268.0    5.0368E-7           0.
      3270.0    7.6277E-7           0.
      3272.0    8.8467E-7           0.
      3274.0    5.0149E-7           0.
      3276.0    5.2853E-7           0.
      3278.0    9.1410E-7           0.
      3280.0    1.1354E-6           0.
      3282.0    1.2229E-6           0.
      3284.0    1.5808E-6           0.
      3286.0    1.3541E-6           0.
      3288.0    1.1463E-6           0.
      3290.0    1.2140E-6           0.
      3292.0    9.1599E-7           0.
      3294.0    1.0012E-6           0.
      3296.0    9.1360E-7           0.
      3298.0    4.8797E-7           0.
      3300.0    3.5733E-7           0.
      3302.0    4.4900E-7           0.
      3304.0    1.1304E-6           0.
      3306.0    1.4754E-6           0.
      3308.0    8.6409E-7           0.
      3310.0    4.2026E-7           0.
      3312.0    3.8268E-7           0.
      3314.0    7.5552E-7           0.
      3316.0    8.1974E-7           0.
      3318.0    9.1787E-7           0.
      3320.0    1.5003E-6           0.
      3322.0    1.4744E-6           0.
      3324.0    1.6345E-6           0.
      3326.0    1.1394E-6           0.
      3328.0    5.1968E-7           0.
      3330.0    4.6222E-7           0.
      3332.0    9.6490E-7           0.
      3334.0    1.4367E-6           0.
      3336.0    8.2660E-7           0.
      3338.0    5.5886E-7           0.
      3340.0    9.8628E-7           0.
      3342.0    1.1722E-6           0.
      3344.0    5.4036E-7           0.
      3346.0    4.7435E-7           0.
      3348.0    8.2293E-7           0.
      3350.0    9.7355E-7           0.
      3352.0    5.8530E-7           0.
      3354.0    3.6558E-7           0.
      3356.0    4.4810E-7           0.
      3358.0    6.7498E-7           0.
      3360.0    7.6834E-7           0.
      3362.0    5.8859E-7           0.
      3364.0    5.6800E-7           0.
      3366.0    8.5743E-7           0.
      3368.0    1.2229E-6           0.
      3370.0    1.8731E-6           0.
      3372.0    2.0690E-6           0.
      3374.0    1.7856E-6           0.
      3376.0    1.5023E-6           0.
      3378.0    1.0817E-6           0.
      3380.0    9.6669E-7           0.
      3382.0    7.5283E-7           0.
      3384.0    4.2792E-7           0.
      3386.0    4.0535E-7           0.
      3388.0    4.9622E-7           0.
      3390.0    6.6912E-7           0.
      3392.0    5.3927E-7           0.
      3394.0    4.4969E-7           0.
      3396.0    8.9262E-7           0.
      3398.0    1.0370E-6           0.
      3400.0    1.0976E-6           0.
      3402.0    1.8304E-6           0.
      3404.0    2.3225E-6           0.
      3406.0    3.0314E-6           0.
      3408.0    3.8576E-6           0.
      3410.0    3.1905E-6           0.
      3412.0    2.2380E-6           0.
      3414.0    3.3615E-6           0.
      3416.0    4.0893E-6           0.
      3418.0    2.3613E-6           0.
      3420.0    6.6385E-7           0.
      3422.0    3.3406E-7           0.
      3424.0    3.4619E-7           0.
      3426.0    6.1911E-7           0.
      3428.0    1.3651E-6           0.
      3430.0    1.1275E-6           0.
      3432.0    9.1827E-7           0.
      3434.0    5.1123E-7           0.
      3436.0    5.0109E-7           0.
      3438.0    1.1076E-6           0.
      3440.0    1.9517E-6           0.
      3442.0    2.0014E-6           0.
      3444.0    1.7230E-6           0.
      3446.0    1.6126E-6           0.
      3448.0    1.1553E-6           0.
      3450.0    1.3581E-6           0.
      3452.0    1.3611E-6           0.
      3454.0    1.3681E-6           0.
      3456.0    1.8045E-6           0.
      3458.0    1.2448E-6           0.
      3460.0    7.9519E-7           0.
      3462.0    1.1980E-6           0.
      3464.0    1.4426E-6           0.
      3466.0    1.2955E-6           0.
      3468.0    1.0668E-6           0.
      3470.0    6.1135E-7           0.
      3472.0    3.3366E-7           0.
      3474.0    5.7109E-7           0.
      3476.0    1.7300E-6           0.
      3478.0    1.3720E-6           0.
      3480.0    5.8829E-7           0.
      3482.0    6.1384E-7           0.
      3484.0    7.0173E-7           0.
      3486.0    7.0421E-7           0.
      3488.0    7.1366E-7           0.
      3490.0    9.8668E-7           0.
      3492.0    1.0380E-6           0.
      3494.0    9.9035E-7           0.
      3496.0    8.2541E-7           0.
      3498.0    5.7994E-7           0.
      3500.0    1.0579E-6           0.
      3502.0    1.6822E-6           0.
      3504.0    1.4158E-6           0.
      3506.0    1.2955E-6           0.
      3508.0    1.2826E-6           0.
      3510.0    7.5800E-7           0.
      3512.0    1.2070E-6           0.
      3514.0    2.3683E-6           0.
      3516.0    2.2937E-6           0.
      3518.0    1.7916E-6           0.
      3520.0    8.0493E-7           0.
      3522.0    3.7642E-7           0.
      3524.0    3.1438E-7           0.
      3526.0    3.4719E-7           0.
      3528.0    9.9075E-7           0.
      3530.0    1.9397E-6           0.
      3532.0    1.5928E-6           0.
      3534.0    1.3333E-6           0.
      3536.0    1.6534E-6           0.
      3538.0    1.4048E-6           0.
      3540.0    6.1851E-7           0.
      3542.0    5.7546E-7           0.
      3544.0    7.4249E-7           0.
      3546.0    1.0768E-6           0.
      3548.0    1.8890E-6           0.
      3550.0    2.4170E-6           0.
      3552.0    2.1804E-6           0.
      3554.0    1.3164E-6           0.
      3556.0    4.6341E-7           0.
      3558.0    3.1438E-7           0.
      3560.0    4.1231E-7           0.
      3562.0    7.1038E-7           0.
      3564.0    1.6514E-6           0.
      3566.0    2.1595E-6           0.
      3568.0    1.7379E-6           0.
      3570.0    1.4277E-6           0.
      3572.0    7.6675E-7           0.
      3574.0    3.4500E-7           0.
      3576.0    3.5673E-7           0.
      3578.0    7.1217E-7           0.
      3580.0    1.3979E-6           0.
      3582.0    1.7290E-6           0.
      3584.0    1.8562E-6           0.
      3586.0    1.6166E-6           0.
      3588.0    1.2368E-6           0.
      3590.0    1.1921E-6           0.
      3592.0    1.3233E-6           0.
      3594.0    1.6932E-6           0.
      3596.0    1.5510E-6           0.
      3598.0    9.7723E-7           0.
      3600.0    4.9344E-7           0.
      3602.0    4.9970E-7           0.
      3604.0    9.3150E-7           0.
      3606.0    9.3905E-7           0.
      3608.0    1.2060E-6           0.
      3610.0    2.0571E-6           0.
      3612.0    1.9308E-6           0.
      3614.0    1.4565E-6           0.
      3616.0    1.2120E-6           0.
      3618.0    8.4172E-7           0.
      3620.0    9.5148E-7           0.
      3622.0    9.7425E-7           0.
      3624.0    7.2678E-7           0.
      3626.0    5.4186E-7           0.
      3628.0    8.8387E-7           0.
      3630.0    1.7538E-6           0.
      3632.0    1.3512E-6           0.
      3634.0    1.0966E-6           0.
      3636.0    1.3084E-6           0.
      3638.0    8.1388E-7           0.
      3640.0    7.3732E-7           0.
      3642.0    7.8574E-7           0.
      3644.0    5.6512E-7           0.
      3646.0    5.3848E-7           0.
      3648.0    6.2487E-7           0.
      3650.0    6.8960E-7           0.
      3652.0    7.9061E-7           0.
      3654.0    9.0386E-7           0.
      3656.0    5.6194E-7           0.
      3658.0    3.8278E-7           0.
      3660.0    6.2030E-7           0.
      3662.0    1.1802E-6           0.
      3664.0    1.2517E-6           0.
      3666.0    7.7779E-7           0.
      3668.0    4.7793E-7           0.
      3670.0    6.1543E-7           0.
      3672.0    8.3476E-7           0.
      3674.0    7.2887E-7           0.
      3676.0    7.4468E-7           0.
      3678.0    1.3164E-6           0.
      3680.0    1.3701E-6           0.
      3682.0    9.2295E-7           0.
      3684.0    7.5492E-7           0.
      3686.0    1.0260E-6           0.
      3688.0    1.2756E-6           0.
      3690.0    1.3104E-6           0.
      3692.0    1.5500E-6           0.
      3694.0    1.5222E-6           0.
      3696.0    1.0877E-6           0.
      3698.0    1.0688E-6           0.
      3700.0    1.2219E-6           0.
      3702.0    9.5585E-7           0.
      3704.0    9.5387E-7           0.
      3706.0    9.5406E-7           0.
      3708.0    1.0330E-6           0.
      3710.0    1.2368E-6           0.
      3712.0    1.4794E-6           0.
      3714.0    1.6176E-6           0.
      3716.0    9.0962E-7           0.
      3718.0    4.0535E-7           0.
      3720.0    3.3277E-7           0.
      3722.0    4.4611E-7           0.
      3724.0    7.3384E-7           0.
      3726.0    5.5796E-7           0.
      3728.0    3.1438E-7           0.
      3730.0    3.1517E-7           0.
      3732.0    6.2617E-7           0.
      3734.0    9.0008E-7           0.
      3736.0    6.1782E-7           0.
      3738.0    3.5474E-7           0.
      3740.0    3.1438E-7           0.
      3742.0    3.1438E-7           0.
      3744.0    4.2991E-7           0.
      3746.0    7.8137E-7           0.
      3748.0    9.1956E-7           0.
      3750.0    1.0439E-6           0.
      3752.0    1.2289E-6           0.
      3754.0    1.1364E-6           0.
      3756.0    6.7667E-7           0.
      3758.0    3.8656E-7           0.
      3760.0    5.3231E-7           0.
      3762.0    1.0927E-6           0.
      3764.0    9.9920E-7           0.
      3766.0    5.0477E-7           0.
      3768.0    3.4828E-7           0.
      3770.0    4.3508E-7           0.
      3772.0    5.0825E-7           0.
      3774.0    5.4424E-7           0.
      3776.0    9.4512E-7           0.
      3778.0    1.2159E-6           0.
      3780.0    1.2100E-6           0.
      3782.0    1.1175E-6           0.
      3784.0    7.9996E-7           0.
      3786.0    5.1143E-7           0.
      3788.0    5.3112E-7           0.
      3790.0    9.5208E-7           0.
      3792.0    8.5703E-7           0.
      3794.0    7.0730E-7           0.
      3796.0    1.0797E-6           0.
      3798.0    1.2448E-6           0.
      3800.0    1.0877E-6           0.
      3802.0    9.4790E-7           0.
      3804.0    7.7212E-7           0.
      3806.0    6.2845E-7           0.
      3808.0    6.9208E-7           0.
      3810.0    6.8055E-7           0.
      3812.0    7.3484E-7           0.
      3814.0    7.7371E-7           0.
      3816.0    5.8023E-7           0.
      3818.0    3.5892E-7           0.
      3820.0    3.1438E-7           0.
      3822.0    3.1438E-7           0.
      3824.0    4.6122E-7           0.
      3826.0    4.2623E-7           0.
      3828.0    3.1438E-7           0.
      3830.0    3.1438E-7           0.
      3832.0    4.3866E-7           0.
      3834.0    6.4476E-7           0.
      3836.0    5.0835E-7           0.
      3838.0    6.5251E-7           0.
      3840.0    9.5367E-7           0.
      3842.0    9.8966E-7           0.
      3844.0    1.0519E-6           0.
      3846.0    1.0499E-6           0.
      3848.0    1.1692E-6           0.
      3850.0    1.1931E-6           0.
      3852.0    1.3939E-6           0.
      3854.0    1.4297E-6           0.
      3856.0    1.0171E-6           0.
      3858.0    7.9558E-7           0.
      3860.0    4.3100E-7           0.
      3862.0    3.2750E-7           0.
      3864.0    5.4106E-7           0.
      3866.0    7.1137E-7           0.
      3868.0    4.2225E-7           0.
      3870.0    3.1438E-7           0.
      3872.0    4.2026E-7           0.
      3874.0    8.1040E-7           0.
      3876.0    1.1463E-6           0.
      3878.0    1.0877E-6           0.
      3880.0    5.7089E-7           0.
      3882.0    5.0626E-7           0.
      3884.0    8.2909E-7           0.
      3886.0    1.1285E-6           0.
      3888.0    6.7588E-7           0.
      3890.0    3.4241E-7           0.
      3892.0    5.4762E-7           0.
      3894.0    8.5822E-7           0.
      3896.0    7.6277E-7           0.
      3898.0    1.0509E-6           0.
      3900.0    1.3601E-6           0.
      3902.0    1.3691E-6           0.
      3904.0    1.3760E-6           0.
      3906.0    1.5599E-6           0.
      3908.0    1.6395E-6           0.
      3910.0    1.4764E-6           0.
      3912.0    1.3571E-6           0.
      3914.0    1.3770E-6           0.
      3916.0    1.5769E-6           0.
      3918.0    1.9417E-6           0.
      3920.0    2.1416E-6           0.
      3922.0    2.5035E-6           0.
      3924.0    2.9827E-6           0.
      3926.0    3.0861E-6           0.
      3928.0    3.1457E-6           0.
      3930.0    3.2273E-6           0.
      3932.0    3.7363E-6           0.
      3934.0    4.4035E-6           0.
      3936.0    4.8290E-6           0.
      3938.0    5.1213E-6           0.
      3940.0    5.3599E-6           0.
      3942.0    5.5548E-6           0.
      3944.0    5.7009E-6           0.
      3946.0    5.7725E-6           0.
      3948.0    5.7715E-6           0.
      3950.0    5.7606E-6           0.
      3952.0    6.1453E-6           0.
      3954.0    6.5490E-6           0.
      3956.0    6.5490E-6           0.
      3958.0    6.4088E-6           0.
      3960.0    6.2139E-6           0.
      3962.0    6.2587E-6           0.
      3964.0    6.6176E-6           0.
      3966.0    6.9437E-6           0.
      3968.0    7.1624E-6           0.
      3970.0    7.1943E-6           0.
      3972.0    7.1018E-6           0.
      3974.0    7.1137E-6           0.
      3976.0    7.0143E-6           0.
      3978.0    7.0769E-6           0.
      3980.0    7.7997E-6           0.
      3982.0    8.1577E-6           0.
      3984.0    8.2104E-6           0.
      3986.0    8.3476E-6           0.
      3988.0    8.3038E-6           0.
      3990.0    8.4371E-6           0.
      3992.0    8.8775E-6           0.
      3994.0    9.5347E-6           0.
      3996.0    1.0022E-5           0.
      3998.0    1.0161E-5           0.
      4000.0    1.0449E-5           0.
      4002.0    1.1086E-5           0.
      4004.0    1.1603E-5           0.
      4006.0    1.1971E-5           0.
      4008.0    1.2249E-5           0.
      4010.0    1.2637E-5           0.
      4012.0    1.3243E-5           0.
      4014.0    1.3999E-5           0.
      4016.0    1.4575E-5           0.
      4018.0    1.4943E-5           0.
      4020.0    1.5500E-5           0.
      4022.0    1.6037E-5           0.
      4024.0    1.6236E-5           0.
      4026.0    1.6773E-5           0.
      4028.0    1.7449E-5           0.
      4030.0    1.7757E-5           0.
      4032.0    1.8095E-5           0.
      4034.0    1.8393E-5           0.
      4036.0    1.8393E-5           0.
      4038.0    1.8274E-5           0.
      4040.0    1.8294E-5           0.
      4042.0    1.8552E-5           0.
      4044.0    1.8403E-5           0.
      4046.0    1.7817E-5           0.
      4048.0    1.7558E-5           0.
      4050.0    1.7598E-5           0.
      4052.0    1.7538E-5           0.
      4054.0    1.7310E-5           0.
      4056.0    1.7071E-5           0.
      4058.0    1.7021E-5           0.
      4060.0    1.6812E-5           0.
      4062.0    1.6435E-5           0.
      4064.0    1.6017E-5           0.
      4066.0    1.5679E-5           0.
      4068.0    1.5649E-5           0.
      4070.0    1.5679E-5           0.
      4072.0    1.5808E-5           0.
      4074.0    1.6057E-5           0.
      4076.0    1.6295E-5           0.
      4078.0    1.6524E-5           0.
      4080.0    1.6544E-5           0.
      4082.0    1.6534E-5           0.
      4084.0    1.6703E-5           0.
      4086.0    1.6981E-5           0.
      4088.0    1.7250E-5           0.
      4090.0    1.7757E-5           0.
      4092.0    1.8513E-5           0.
      4094.0    1.9218E-5           0.
      4096.0    1.9676E-5           0.
      4098.0    2.0093E-5           0.
      4100.0    2.0710E-5           0.
      4102.0    2.1237E-5           0.
      4104.0    2.1654E-5           0.
      4106.0    2.2231E-5           0.
      4108.0    2.2957E-5           0.
      4110.0    2.3563E-5           0.
      4112.0    2.4110E-5           0.
      4114.0    2.4438E-5           0.
      4116.0    2.4766E-5           0.
      4118.0    2.4906E-5           0.
      4120.0    2.4697E-5           0.
      4122.0    2.4488E-5           0.
      4124.0    2.4508E-5           0.
      4126.0    2.4637E-5           0.
      4128.0    2.4319E-5           0.
      4130.0    2.3613E-5           0.
      4132.0    2.3076E-5           0.
      4134.0    2.2668E-5           0.
      4136.0    2.1943E-5           0.
      4138.0    2.1088E-5           0.
      4140.0    2.0481E-5           0.
      4142.0    1.9646E-5           0.
      4144.0    1.8652E-5           0.
      4146.0    1.8085E-5           0.
      4148.0    1.7747E-5           0.
      4150.0    1.7170E-5           0.
      4152.0    1.6266E-5           0.
      4154.0    1.5331E-5           0.
      4156.0    1.4735E-5           0.
      4158.0    1.4436E-5           0.
      4160.0    1.3939E-5           0.
      4162.0    1.3362E-5           0.
      4164.0    1.3223E-5           0.
      4166.0    1.3273E-5           0.
      4168.0    1.3084E-5           0.
      4170.0    1.2647E-5           0.
      4172.0    1.2309E-5           0.
      4174.0    1.2358E-5           0.
      4176.0    1.2577E-5           0.
      4178.0    1.2756E-5           0.
      4180.0    1.2537E-5           0.
      4182.0    1.2338E-5           0.
      4184.0    1.2676E-5           0.
      4186.0    1.3094E-5           0.
      4188.0    1.3571E-5           0.
      4190.0    1.4108E-5           0.
      4192.0    1.4585E-5           0.
      4194.0    1.5003E-5           0.
      4196.0    1.5599E-5           0.
      4198.0    1.6355E-5           0.
      4200.0    1.7260E-5           0.
      4202.0    1.8175E-5           0.
      4204.0    1.9199E-5           0.
      4206.0    2.0610E-5           0.
      4208.0    2.1992E-5           0.
      4210.0    2.3225E-5           0.
      4212.0    2.4418E-5           0.
      4214.0    2.5890E-5           0.
      4216.0    2.7461E-5           0.
      4218.0    2.8684E-5           0.
      4220.0    2.9767E-5           0.
      4222.0    3.0672E-5           0.
      4224.0    3.1129E-5           0.
      4226.0    3.1418E-5           0.
      4228.0    3.1656E-5           0.
      4230.0    3.1746E-5           0.
      4232.0    3.1428E-5           0.
      4234.0    3.0443E-5           0.
      4236.0    2.9141E-5           0.
      4238.0    2.7888E-5           0.
      4240.0    2.6675E-5           0.
      4242.0    2.5174E-5           0.
      4244.0    2.3464E-5           0.
      4246.0    2.1784E-5           0.
      4248.0    2.0243E-5           0.
      4250.0    1.8960E-5           0.
      4252.0    1.7687E-5           0.
      4254.0    1.6216E-5           0.
      4256.0    1.4764E-5           0.
      4258.0    1.3422E-5           0.
      4260.0    1.2289E-5           0.
      4262.0    1.1454E-5           0.
      4264.0    1.0618E-5           0.
      4266.0    9.7514E-6           0.
      4268.0    8.9471E-6           0.
      4270.0    8.0404E-6           0.
      4272.0    7.2112E-6           0.
      4274.0    6.2139E-6           0.
      4276.0    5.2535E-6           0.
      4278.0    4.4532E-6           0.
      4280.0    3.6528E-6           0.
      4282.0    2.8117E-6           0.
      4284.0    2.1555E-6           0.
      4286.0    1.6753E-6           0.
      4288.0    1.7837E-6           0.
      4290.0    1.9278E-6           0.
      4292.0    1.1941E-6           0.
      4294.0    7.5005E-7           0.
      4296.0    7.0561E-7           0.
      4298.0    7.7530E-7           0.
      4300.0    8.2979E-7           0.
      4302.0    7.9449E-7           0.
      4304.0    9.3537E-7           0.
      4306.0    1.1116E-6           0.
      4308.0    1.3969E-6           0.
      4310.0    2.2977E-6           0.
      4312.0    2.4846E-6           0.
      4314.0    2.2420E-6           0.
      4316.0    2.0064E-6           0.
      4318.0    1.3333E-6           0.
      4320.0    1.0797E-6           0.
      4322.0    5.8063E-7           0.
      4324.0    3.1438E-7           0.
      4326.0    3.1438E-7           0.
      4328.0    3.1438E-7           0.
      4330.0    3.1438E-7           0.
      4332.0    3.1438E-7           0.
      4334.0    3.1438E-7           0.
      4336.0    3.1438E-7           0.
      4338.0    3.1438E-7           0.
      4340.0    3.1438E-7           0.
      4342.0    3.1438E-7           0.
      4344.0    3.1438E-7           0.
      4346.0    3.1438E-7           0.
      4348.0    3.1438E-7           0.
      4350.0    3.1438E-7           0.
      4352.0    3.1438E-7           0.
      4354.0    3.1438E-7           0.
      4356.0    3.1438E-7           0.
      4358.0    3.1438E-7           0.
      4360.0    3.1438E-7           0.
      4362.0    3.1438E-7           0.
      4364.0    3.1438E-7           0.
      4366.0    3.1438E-7           0.
      4368.0    3.1438E-7           0.
      4370.0    3.1438E-7           0.
      4372.0    3.1438E-7           0.
      4374.0    3.1438E-7           0.
      4376.0    3.1438E-7           0.
      4378.0    3.1438E-7           0.
      4380.0    3.1438E-7           0.
      4382.0    4.4820E-7           0.
      4384.0    1.6107E-6           0.
      4386.0    3.8467E-6           0.
      4388.0    6.3651E-6           0.
      4390.0    9.5754E-6           0.
      4392.0    1.0728E-5           0.
      4394.0    1.1802E-5           0.
      4396.0    1.3889E-5           0.
      4398.0    1.5232E-5           0.
      4400.0    1.5689E-5           0.
      4402.0    1.6574E-5           0.
      4404.0    1.8473E-5           0.
      4406.0    1.9368E-5           0.
      4408.0    1.9308E-5           0.
      4410.0    2.0561E-5           0.
      4412.0    2.3046E-5           0.
      4414.0    2.5035E-5           0.
      4416.0    2.5959E-5           0.
      4418.0    2.7669E-5           0.
      4420.0    3.0105E-5           0.
      4422.0    3.2661E-5           0.
      4424.0    3.4500E-5           0.
      4426.0    3.4788E-5           0.
      4428.0    3.5613E-5           0.
      4430.0    3.6439E-5           0.
      4432.0    3.5753E-5           0.
      4434.0    3.6588E-5           0.
      4436.0    3.7383E-5           0.
      4438.0    3.6816E-5           0.
      4440.0    3.6757E-5           0.
      4442.0    3.6210E-5           0.
      4444.0    3.4788E-5           0.
      4446.0    3.2919E-5           0.
      4448.0    3.1467E-5           0.
      4450.0    3.0165E-5           0.
      4452.0    2.7679E-5           0.
      4454.0    2.5572E-5           0.
      4456.0    2.4080E-5           0.
      4458.0    2.2370E-5           0.
      4460.0    2.0332E-5           0.
      4462.0    1.8135E-5           0.
      4464.0    1.5868E-5           0.
      4466.0    1.3830E-5           0.
      4468.0    1.2120E-5           0.
      4470.0    1.0549E-5           0.
      4472.0    8.9948E-6           0.
      4474.0    7.5452E-6           0.
      4476.0    6.3064E-6           0.
      4478.0    5.3072E-6           0.
      4480.0    4.4452E-6           0.
      4482.0    3.7821E-6           0.
      4484.0    3.1279E-6           0.
      4486.0    2.5383E-6           0.
      4488.0    2.0054E-6           0.
      4490.0    1.4715E-6           0.
      4492.0    1.1434E-6           0.
      4494.0    1.0768E-6           0.
      4496.0    1.0966E-6           0.
      4498.0    1.0241E-6           0.
      4500.0    9.5277E-7           0.
      4502.0    9.4273E-7           0.
      4504.0    7.2877E-7           0.
      4506.0    6.5580E-7           0.
      4508.0    7.9429E-7           0.
      4510.0    7.4935E-7           0.
      4512.0    7.3484E-7           0.
      4514.0    8.0771E-7           0.
      4516.0    7.8375E-7           0.
      4518.0    7.3842E-7           0.
      4520.0    7.9598E-7           0.
      4522.0    9.5605E-7           0.
      4524.0    1.0569E-6           0.
      4526.0    1.1016E-6           0.
      4528.0    1.1145E-6           0.
      4530.0    1.0052E-6           0.
      4532.0    8.3515E-7           0.
      4534.0    7.3076E-7           0.
      4536.0    8.3784E-7           0.
      4538.0    9.6152E-7           0.
      4540.0    9.0485E-7           0.
      4542.0    7.9479E-7           0.
      4544.0    7.1863E-7           0.
      4546.0    6.8691E-7           0.
      4548.0    7.7053E-7           0.
      4550.0    9.3388E-7           0.
      4552.0    1.0151E-6           0.
      4554.0    9.6779E-7           0.
      4556.0    7.8326E-7           0.
      4558.0    6.7439E-7           0.
      4560.0    7.4816E-7           0.
      4562.0    9.0336E-7           0.
      4564.0    1.0529E-6           0.
      4566.0    1.1990E-6           0.
      4568.0    1.2338E-6           0.
      4570.0    1.0420E-6           0.
      4572.0    8.2312E-7           0.
      4574.0    7.3921E-7           0.
      4576.0    7.9270E-7           0.
      4578.0    8.5583E-7           0.
      4580.0    8.3078E-7           0.
      4582.0    8.7791E-7           0.
      4584.0    9.4551E-7           0.
      4586.0    8.7980E-7           0.
      4588.0    8.8666E-7           0.
      4590.0    9.7156E-7           0.
      4592.0    9.0127E-7           0.
      4594.0    8.3714E-7           0.
      4596.0    9.3150E-7           0.
      4598.0    1.0310E-6           0.
      4600.0    9.1052E-7           0.
      4602.0    7.5890E-7           0.
      4604.0    6.7836E-7           0.
      4606.0    6.5222E-7           0.
      4608.0    5.5389E-7           0.
      4610.0    5.0835E-7           0.
      4612.0    5.6711E-7           0.
      4614.0    6.4207E-7           0.
      4616.0    7.4349E-7           0.
      4618.0    7.8823E-7           0.
      4620.0    7.9350E-7           0.
      4622.0    8.0791E-7           0.
      4624.0    6.6266E-7           0.
      4626.0    5.1869E-7           0.
      4628.0    5.6930E-7           0.
      4630.0    6.6614E-7           0.
      4632.0    6.9537E-7           0.
      4634.0    7.4796E-7           0.
      4636.0    7.4468E-7           0.
      4638.0    7.1624E-7           0.
      4640.0    8.3804E-7           0.
      4642.0    8.9123E-7           0.
      4644.0    8.3615E-7           0.
      4646.0    7.6377E-7           0.
      4648.0    7.3871E-7           0.
      4650.0    9.1539E-7           0.
      4652.0    1.0708E-6           0.
      4654.0    1.0439E-6           0.
      4656.0    1.0141E-6           0.
      4658.0    8.9123E-7           0.
      4660.0    7.3802E-7           0.
      4662.0    7.7212E-7           0.
      4664.0    8.6796E-7           0.
      4666.0    8.5703E-7           0.
      4668.0    7.8336E-7           0.
      4670.0    8.6667E-7           0.
      4672.0    9.6888E-7           0.
      4674.0    9.6709E-7           0.
      4676.0    1.0201E-6           0.
      4678.0    1.0082E-6           0.
      4680.0    9.8668E-7           0.
      4682.0    9.2404E-7           0.
      4684.0    9.0157E-7           0.
      4686.0    9.7405E-7           0.
      4688.0    1.0111E-6           0.
      4690.0    1.0091E-6           0.
      4692.0    9.6073E-7           0.
      4694.0    8.4798E-7           0.
      4696.0    7.9608E-7           0.
      4698.0    7.6307E-7           0.
      4700.0    6.2786E-7           0.
      4702.0    6.4048E-7           0.
      4704.0    7.9718E-7           0.
      4706.0    8.5723E-7           0.
      4708.0    9.3498E-7           0.
      4710.0    9.2444E-7           0.
      4712.0    8.7512E-7           0.
      4714.0    8.8874E-7           0.
      4716.0    8.4291E-7           0.
      4718.0    8.0334E-7           0.
      4720.0    8.0742E-7           0.
      4722.0    8.6627E-7           0.
      4724.0    9.0048E-7           0.
      4726.0    7.8465E-7           0.
      4728.0    6.9914E-7           0.
      4730.0    7.6118E-7           0.
      4732.0    8.2312E-7           0.
      4734.0    8.2084E-7           0.
      4736.0    7.2738E-7           0.
      4738.0    6.7807E-7           0.
      4740.0    7.2907E-7           0.
      4742.0    7.8286E-7           0.
      4744.0    8.3575E-7           0.
      4746.0    8.2790E-7           0.
      4748.0    8.4917E-7           0.
      4750.0    9.6868E-7           0.
      4752.0    1.0052E-6           0.
      4754.0    8.8387E-7           0.
      4756.0    8.1616E-7           0.
      4758.0    8.0384E-7           0.
      4760.0    7.8246E-7           0.
      4762.0    7.8087E-7           0.
      4764.0    7.3603E-7           0.
      4766.0    7.1545E-7           0.
      4768.0    7.8226E-7           0.
      4770.0    8.5951E-7           0.
      4772.0    8.8039E-7           0.
      4774.0    9.1956E-7           0.
      4776.0    9.5228E-7           0.
      4778.0    9.5516E-7           0.
      4780.0    9.6291E-7           0.
      4782.0    8.8566E-7           0.
      4784.0    8.7353E-7           0.
      4786.0    9.5585E-7           0.
      4788.0    9.2722E-7           0.
      4790.0    7.9141E-7           0.
      4792.0    6.1046E-7           0.
      4794.0    6.0618E-7           0.
      4796.0    7.3613E-7           0.
      4798.0    7.8415E-7           0.
      4800.0    8.1865E-7           0.
      4802.0    8.6250E-7           0.
      4804.0    8.6051E-7           0.
      4806.0    8.3655E-7           0.
      4808.0    8.1507E-7           0.
      4810.0    8.0702E-7           0.
      4812.0    7.3822E-7           0.
      4814.0    7.0322E-7           0.
      4816.0    7.5403E-7           0.
      4818.0    7.4448E-7           0.
      4820.0    7.0919E-7           0.
      4822.0    7.1445E-7           0.
      4824.0    7.8972E-7           0.
      4826.0    8.9739E-7           0.
      4828.0    8.8467E-7           0.
      4830.0    8.4987E-7           0.
      4832.0    9.0654E-7           0.
      4834.0    9.3040E-7           0.
      4836.0    8.3824E-7           0.
      4838.0    7.5472E-7           0.
      4840.0    7.4985E-7           0.
      4842.0    7.8176E-7           0.
      4844.0    8.5106E-7           0.
      4846.0    8.2521E-7           0.
      4848.0    7.3782E-7           0.
      4850.0    7.1624E-7           0.
      4852.0    8.0274E-7           0.
      4854.0    9.0067E-7           0.
      4856.0    8.8705E-7           0.
      4858.0    8.4311E-7           0.
      4860.0    8.2034E-7           0.
      4862.0    8.2263E-7           0.
      4864.0    7.9837E-7           0.
      4866.0    7.7868E-7           0.
      4868.0    8.4579E-7           0.
      4870.0    9.1449E-7           0.
      4872.0    8.6548E-7           0.
      4874.0    8.0553E-7           0.
      4876.0    7.6208E-7           0.
      4878.0    6.6275E-7           0.
      4880.0    6.9099E-7           0.
      4882.0    7.8664E-7           0.
      4884.0    8.2541E-7           0.
      4886.0    8.7055E-7           0.
      4888.0    8.3187E-7           0.
      4890.0    7.7679E-7           0.
      4892.0    7.9817E-7           0.
      4894.0    8.5564E-7           0.
      4896.0    8.6001E-7           0.
      4898.0    8.4540E-7           0.
      4900.0    8.5385E-7           0.
      4902.0    8.2312E-7           0.
      4904.0    7.6446E-7           0.
      4906.0    6.8105E-7           0.
      4908.0    6.4665E-7           0.
      4910.0    6.7260E-7           0.
      4912.0    7.5920E-7           0.
      4914.0    8.4520E-7           0.
      4916.0    8.4639E-7           0.
      4918.0    7.2758E-7           0.
      4920.0    6.6892E-7           0.
      4922.0    7.4080E-7           0.
      4924.0    8.0702E-7           0.
      4926.0    8.2909E-7           0.
      4928.0    8.4023E-7           0.
      4930.0    8.7999E-7           0.
      4932.0    8.5623E-7           0.
      4934.0    7.6347E-7           0.
      4936.0    7.5074E-7           0.
      4938.0    7.5363E-7           0.
      4940.0    6.6375E-7           0.
      4942.0    6.2617E-7           0.
      4944.0    7.3434E-7           0.
      4946.0    8.8974E-7           0.
      4948.0    8.9322E-7           0.
      4950.0    8.5345E-7           0.
      4952.0    8.6448E-7           0.
      4954.0    8.6627E-7           0.
      4956.0    7.8664E-7           0.
      4958.0    7.7142E-7           0.
      4960.0    8.2352E-7           0.
      4962.0    8.4738E-7           0.
      4964.0    7.8614E-7           0.
      4966.0    7.7053E-7           0.
      4968.0    7.9608E-7           0.
      4970.0    7.6874E-7           0.
      4972.0    6.9725E-7           0.
      4974.0    5.9853E-7           0.
      4976.0    6.1105E-7           0.
      4978.0    7.4040E-7           0.
      4980.0    8.7433E-7           0.
      4982.0    8.9531E-7           0.
      4984.0    8.1259E-7           0.
      4986.0    7.9041E-7           0.
      4988.0    7.7620E-7           0.
      4990.0    7.4587E-7           0.
      4992.0    7.8485E-7           0.
      4994.0    8.3346E-7           0.
      4996.0    8.4897E-7           0.
      4998.0    8.2690E-7           0.
      5000.0    8.4291E-7           0.
      5002.0    8.6220E-7           0.
      5004.0    7.9867E-7           0.
      5006.0    7.5631E-7           0.
      5008.0    7.6258E-7           0.
      5010.0    6.9596E-7           0.
      5012.0    5.6721E-7           0.
      5014.0    5.0109E-7           0.
      5016.0    5.7924E-7           0.
      5018.0    7.5472E-7           0.
      5020.0    8.2750E-7           0.
      5022.0    7.9847E-7           0.
      5024.0    7.4607E-7           0.
      5026.0    7.5542E-7           0.
      5028.0    7.6665E-7           0.
      5030.0    7.7958E-7           0.
      5032.0    8.5862E-7           0.
      5034.0    8.1935E-7           0.
      5036.0    6.4158E-7           0.
      5038.0    5.5985E-7           0.
      5040.0    6.6514E-7           0.
      5042.0    7.5502E-7           0.
      5044.0    8.1994E-7           0.
      5046.0    9.0783E-7           0.
      5048.0    8.5772E-7           0.
      5050.0    8.3863E-7           0.
      5052.0    8.2372E-7           0.
      5054.0    7.1147E-7           0.
      5056.0    6.8433E-7           0.
      5058.0    7.6437E-7           0.
      5060.0    8.5643E-7           0.
      5062.0    8.4271E-7           0.
      5064.0    8.4480E-7           0.
      5066.0    8.4211E-7           0.
      5068.0    7.6735E-7           0.
      5070.0    7.3653E-7           0.
      5072.0    7.5363E-7           0.
      5074.0    6.6673E-7           0.
      5076.0    6.3372E-7           0.
      5078.0    6.4754E-7           0.
      5080.0    6.7996E-7           0.
      5082.0    6.9248E-7           0.
      5084.0    6.5222E-7           0.
      5086.0    6.7608E-7           0.
      5088.0    7.9449E-7           0.
      5090.0    8.3675E-7           0.
      5092.0    8.0384E-7           0.
      5094.0    7.6029E-7           0.
      5096.0    8.1169E-7           0.
      5098.0    8.7333E-7           0.
      5100.0    8.6051E-7           0.
      5102.0    8.4619E-7           0.
      5104.0    8.2869E-7           0.
      5106.0    8.0364E-7           0.
      5108.0    7.8554E-7           0.
      5110.0    9.0674E-7           0.
      5112.0    1.0390E-6           0.
      5114.0    1.0290E-6           0.
      5116.0    8.2621E-7           0.
      5118.0    7.0590E-7           0.
      5120.0    8.2163E-7           0.
      5122.0    9.4442E-7           0.
      5124.0    9.2762E-7           0.
      5126.0    9.1052E-7           0.
      5128.0    9.5078E-7           0.
      5130.0    9.4601E-7           0.
      5132.0    9.6709E-7           0.
      5134.0    8.9719E-7           0.
      5136.0    9.0594E-7           0.
      5138.0    9.6888E-7           0.
      5140.0    8.8566E-7           0.
      5142.0    8.0334E-7           0.
      5144.0    8.1557E-7           0.
      5146.0    8.9759E-7           0.
      5148.0    9.0982E-7           0.
      5150.0    9.2126E-7           0.
      5152.0    9.3388E-7           0.
      5154.0    9.3000E-7           0.
      5156.0    9.3855E-7           0.
      5158.0    9.3796E-7           0.
      5160.0    8.4579E-7           0.
      5162.0    8.3167E-7           0.
      5164.0    9.2126E-7           0.
      5166.0    9.8807E-7           0.
      5168.0    1.1135E-6           0.
      5170.0    1.1434E-6           0.
      5172.0    1.0857E-6           0.
      5174.0    1.1503E-6           0.
      5176.0    1.2348E-6           0.
      5178.0    1.2020E-6           0.
      5180.0    1.2647E-6           0.
      5182.0    1.3621E-6           0.
      5184.0    1.4506E-6           0.
      5186.0    1.6564E-6           0.
      5188.0    1.7906E-6           0.
      5190.0    1.9407E-6           0.
      5192.0    2.2122E-6           0.
      5194.0    2.5462E-6           0.
      5196.0    2.7789E-6           0.
      5198.0    2.9141E-6           0.
      5200.0    3.0105E-6           0.
      5202.0    3.1895E-6           0.
      5204.0    3.5067E-6           0.
      5206.0    3.9570E-6           0.
      5208.0    4.7067E-6           0.
      5210.0    5.6124E-6           0.
      5212.0    6.4148E-6           0.
      5214.0    7.3076E-6           0.
      5216.0    8.4430E-6           0.
      5218.0    9.7514E-6           0.
      5220.0    1.1275E-5           0.
      5222.0    1.3014E-5           0.
      5224.0    1.5092E-5           0.
      5226.0    1.7618E-5           0.
      5228.0    2.0233E-5           0.
      5230.0    2.3036E-5           0.
      5232.0    2.6437E-5           0.
      5234.0    3.0404E-5           0.
      5236.0    3.4868E-5           0.
      5238.0    3.9670E-5           0.
      5240.0    4.4721E-5           0.
      5242.0    5.0020E-5           0.
      5244.0    5.5578E-5           0.
      5246.0    6.1374E-5           0.
      5248.0    6.7339E-5           0.
      5250.0    7.3553E-5           0.
      5252.0    7.9668E-5           0.
      5254.0    8.5484E-5           0.
      5256.0    9.1360E-5           0.
      5258.0    9.7246E-5           0.
      5260.0    1.0310E-4           0.
      5262.0    1.0917E-4           0.
      5264.0    1.1523E-4           0.
      5266.0    1.2130E-4           0.
      5268.0    1.2776E-4           0.
      5270.0    1.3472E-4           0.
      5272.0    1.4237E-4           0.
      5274.0    1.5092E-4           0.
      5276.0    1.6077E-4           0.
      5278.0    1.7190E-4           0.
      5280.0    1.8483E-4           0.
      5282.0    1.9954E-4           0.
      5284.0    2.1575E-4           0.
      5286.0    2.3454E-4           0.
      5288.0    2.5671E-4           0.
      5290.0    2.8167E-4           0.
      5292.0    3.0980E-4           0.
      5294.0    3.4212E-4           0.
      5296.0    3.7860E-4           0.
      5298.0    4.2016E-4           0.
      5300.0    4.6739E-4           0.
      5302.0    5.2108E-4           0.
      5304.0    5.8272E-4           0.
      5306.0    6.5401E-4           0.
      5308.0    7.3553E-4           0.
      5310.0    8.2810E-4           0.
      5312.0    9.3319E-4           0.
      5314.0    0.0010529           0.
      5316.0    0.0011891           0.
      5318.0    0.0013442           0.
      5320.0    0.0015212           0.
      5322.0     0.001723           0.
      5324.0    0.0019537           0.
      5326.0    0.0022151           0.
      5328.0    0.0025134           0.
      5330.0    0.0028485           0.
      5332.0    0.0032243           0.
      5334.0    0.0036429           0.
      5336.0    0.0041032           0.
      5338.0    0.0046122           0.
      5340.0    0.0051839           0.
      5342.0    0.0058172           0.
      5344.0    0.0064625           0.
      5346.0    0.0069497           0.
      5368.0     0.013502           0.
      5370.0     0.014933           0.
      5372.0     0.016425           0.
      5374.0     0.018035           0.
      5376.0     0.019765           0.
      5378.0     0.021615           0.
      5380.0     0.023663           0.
      5382.0      0.02581           0.
      5384.0     0.028137           0.
      5386.0     0.030622           0.
      5388.0     0.033267           0.
      5390.0     0.036091           0.
      5392.0     0.039014           0.
      5394.0     0.042136           0.
      5396.0     0.045456           0.
      5398.0     0.048956           0.
      5400.0     0.052694           0.
      5402.0     0.056552           0.
      5404.0     0.060628           0.
      5406.0     0.064903           0.
      5408.0     0.069377           0.
      5410.0     0.073991           0.
      5412.0     0.078823           0.
      5414.0     0.083873           0.
      5416.0     0.089163           0.
      5418.0     0.094631           0.
      5420.0      0.10022           0.
      5422.0      0.10608           0.
      5424.0      0.11205           0.
      5426.0      0.11831           0.
      5428.0      0.12468           0.
      5430.0      0.13114           0.
      5432.0       0.1379           0.
      5434.0      0.14486           0.
      5436.0      0.15192           0.
      5438.0      0.15918           0.
      5440.0      0.16673           0.
      5442.0      0.17429           0.
      5444.0      0.18194           0.
      5446.0       0.1898           0.
      5448.0      0.19785           0.
      5450.0       0.2062           0.
      5452.0      0.21465           0.
      5454.0      0.22311           0.
      5456.0      0.23176           0.
      5458.0       0.2406           0.
      5460.0      0.24955           0.
      5462.0       0.2586           0.
      5464.0      0.26785           0.
      5466.0      0.27709           0.
      5468.0      0.28644           0.
      5470.0      0.29578           0.
      5472.0      0.30523           0.
      5474.0      0.31467           0.
      5476.0      0.32422           0.
      5478.0      0.33376           0.
      5480.0      0.34331           0.
      5482.0      0.35295           0.
      5484.0       0.3627           0.
      5486.0      0.37234           0.
      5488.0      0.38188           0.
      5490.0      0.39133           0.
      5492.0      0.40077           0.
      5494.0      0.41002           0.
      5496.0      0.41927           0.
      5498.0      0.42832           0.
      5500.0      0.43746           0.
      5502.0      0.44651           0.
      5504.0      0.45556           0.
      5506.0      0.46441           0.
      5508.0      0.47335           0.
      5510.0       0.4823           0.
      5512.0      0.49105           0.
      5514.0       0.4995           0.
      5516.0      0.50795           0.
      5518.0      0.51611           0.
      5520.0      0.52416           0.
      5522.0      0.53211           0.
      5524.0      0.53997           0.
      5526.0      0.54782           0.
      5528.0      0.55558           0.
      5530.0      0.56313           0.
      5532.0      0.57049           0.
      5534.0      0.57755           0.
      5536.0      0.58461           0.
      5538.0      0.59157           0.
      5540.0      0.59823           0.
      5542.0      0.60479           0.
      5544.0      0.61125           0.
      5546.0      0.61742           0.
      5548.0      0.62338           0.
      5550.0      0.62925           0.
      5552.0      0.63502           0.
      5554.0      0.64048           0.
      5556.0      0.64575           0.
      5558.0      0.65102           0.
      5560.0      0.65619           0.
      5562.0      0.66126           0.
      5564.0      0.66614           0.
      5566.0      0.67101           0.
      5568.0      0.67578           0.
      5570.0      0.68035           0.
      5572.0      0.68483           0.
      5574.0       0.6891           0.
      5576.0      0.69328           0.
      5578.0      0.69745           0.
      5580.0      0.70163           0.
      5582.0      0.70581           0.
      5584.0      0.70968           0.
      5586.0      0.71356           0.
      5588.0      0.71724           0.
      5590.0      0.72092           0.
      5592.0       0.7246           0.
      5594.0      0.72827           0.
      5596.0      0.73175           0.
      5598.0      0.73523           0.
      5600.0      0.73852           0.
      5602.0       0.7418           0.
      5604.0      0.74498           0.
      5606.0      0.74796           0.
      5608.0      0.75094           0.
      5610.0      0.75383           0.
      5612.0      0.75671           0.
      5614.0      0.75959           0.
      5616.0      0.76238           0.
      5618.0      0.76506           0.
      5620.0      0.76775           0.
      5622.0      0.77043           0.
      5624.0      0.77311           0.
      5626.0       0.7757           0.
      5628.0      0.77838           0.
      5630.0      0.78097           0.
      5632.0      0.78336           0.
      5634.0      0.78584           0.
      5636.0      0.78833           0.
      5638.0      0.79081           0.
      5640.0       0.7933           0.
      5642.0      0.79578           0.
      5644.0      0.79847           0.
      5646.0      0.80105           0.
      5648.0      0.80354           0.
      5650.0      0.80602           0.
      5652.0      0.80851           0.
      5654.0      0.81109           0.
      5656.0      0.81358           0.
      5658.0      0.81597           0.
      5660.0      0.81835           0.
      5662.0      0.82074           0.
      5664.0      0.82312           0.
      5666.0      0.82541           0.
      5668.0       0.8278           0.
      5670.0      0.83008           0.
      5672.0      0.83237           0.
      5674.0      0.83476           0.
      5676.0      0.83684           0.
      5678.0      0.83913           0.
      5680.0      0.84142           0.
      5682.0      0.84351           0.
      5684.0      0.84569           0.
      5686.0      0.84798           0.
      5688.0      0.85007           0.
      5690.0      0.85226           0.
      5692.0      0.85454           0.
      5694.0      0.85703           0.
      5696.0      0.85931           0.
      5698.0      0.86091           0.
      5700.0      0.86538           0.
      5702.0      0.86697           0.
      5704.0      0.86916           0.
      5706.0      0.87125           0.
      5708.0      0.87333           0.
      5710.0      0.87562           0.
      5712.0      0.87781           0.
      5714.0       0.8798           0.
      5716.0      0.88198           0.
      5718.0      0.88407           0.
      5720.0      0.88596           0.
      5722.0      0.88785           0.
      5724.0      0.88974           0.
      5726.0      0.89143           0.
      5728.0      0.89322           0.
      5730.0      0.89521           0.
      5732.0        0.897           0.
      5734.0      0.89869           0.
      5736.0      0.90038           0.
      5738.0      0.90217           0.
      5740.0      0.90376           0.
      5742.0      0.90535           0.
      5744.0      0.90684           0.
      5746.0      0.90833           0.
      5748.0      0.91002           0.
      5750.0      0.91151           0.
      5752.0       0.9129           0.
      5754.0       0.9143           0.
      5756.0      0.91569           0.
      5758.0      0.91728           0.
      5760.0      0.91887           0.
      5762.0      0.92026           0.
      5764.0      0.92155           0.
      5766.0      0.92275           0.
      5768.0      0.92394           0.
      5770.0      0.92503           0.
      5772.0      0.92623           0.
      5774.0      0.92732           0.
      5776.0      0.92841           0.
      5778.0      0.92931           0.
      5780.0       0.9303           0.
      5782.0       0.9312           0.
      5784.0      0.93219           0.
      5786.0      0.93309           0.
      5788.0      0.93408           0.
      5790.0      0.93488           0.
      5792.0      0.93567           0.
      5794.0      0.93637           0.
      5796.0      0.93696           0.
      5798.0      0.93756           0.
      5800.0      0.93836           0.
      5802.0      0.93905           0.
      5804.0      0.93955           0.
      5806.0      0.94015           0.
      5808.0      0.94074           0.
      5810.0      0.94134           0.
      5812.0      0.94184           0.
      5814.0      0.94213           0.
      5816.0      0.94253           0.
      5818.0      0.94303           0.
      5820.0      0.94343           0.
      5822.0      0.94372           0.
      5824.0      0.94382           0.
      5826.0      0.94392           0.
      5828.0      0.94402           0.
      5830.0      0.94422           0.
      5832.0      0.94442           0.
      5834.0      0.94462           0.
      5836.0      0.94492           0.
      5838.0      0.94522           0.
      5840.0      0.94532           0.
      5842.0      0.94551           0.
      5844.0      0.94561           0.
      5846.0      0.94571           0.
      5848.0      0.94591           0.
      5850.0      0.94601           0.
      5852.0      0.94601           0.
      5854.0      0.94601           0.
      5856.0      0.94601           0.
      5858.0      0.94601           0.
      5860.0      0.94621           0.
      5862.0      0.94641           0.
      5864.0      0.94651           0.
      5866.0      0.94661           0.
      5868.0      0.94661           0.
      5870.0      0.94651           0.
      5872.0      0.94641           0.
      5874.0      0.94651           0.
      5876.0      0.94651           0.
      5878.0      0.94661           0.
      5880.0      0.94671           0.
      5882.0      0.94681           0.
      5884.0      0.94691           0.
      5886.0      0.94701           0.
      5888.0      0.94711           0.
      5890.0      0.94711           0.
      5892.0      0.94701           0.
      5894.0      0.94701           0.
      5896.0      0.94691           0.
      5898.0      0.94691           0.
      5900.0      0.94701           0.
      5902.0      0.94711           0.
      5904.0      0.94711           0.
      5906.0      0.94701           0.
      5908.0      0.94691           0.
      5910.0      0.94711           0.
      5912.0       0.9472           0.
      5914.0       0.9473           0.
      5916.0       0.9473           0.
      5918.0       0.9473           0.
      5920.0       0.9475           0.
      5922.0       0.9476           0.
      5924.0       0.9478           0.
      5926.0       0.9479           0.
      5928.0       0.9479           0.
      5930.0        0.948           0.
      5932.0       0.9484           0.
      5934.0       0.9486           0.
      5936.0       0.9487           0.
      5938.0       0.9488           0.
      5940.0      0.94889           0.
      5942.0      0.94909           0.
      5944.0      0.94919           0.
      5946.0      0.94929           0.
      5948.0      0.94949           0.
      5950.0      0.94969           0.
      5952.0      0.94979           0.
      5954.0      0.94989           0.
      5956.0      0.95009           0.
      5958.0      0.95029           0.
      5960.0      0.95058           0.
      5962.0      0.95088           0.
      5964.0      0.95108           0.
      5966.0      0.95148           0.
      5968.0      0.95168           0.
      5970.0      0.95198           0.
      5972.0      0.95218           0.
      5974.0      0.95228           0.
      5976.0      0.95237           0.
      5978.0      0.95257           0.
      5980.0      0.95267           0.
      5982.0      0.95297           0.
      5984.0      0.95337           0.
      5986.0      0.95357           0.
      5988.0      0.95367           0.
      5990.0      0.95387           0.
      5992.0      0.95397           0.
      5994.0      0.95416           0.
      5996.0      0.95426           0.
      5998.0      0.95426           0.
      6000.0      0.95436           0.
      6002.0      0.95446           0.
      6004.0      0.95456           0.
      6006.0      0.95466           0.
      6008.0      0.95476           0.
      6010.0      0.95486           0.
      6012.0      0.95486           0.
      6014.0      0.95496           0.
      6016.0      0.95506           0.
      6018.0      0.95516           0.
      6020.0      0.95536           0.
      6022.0      0.95546           0.
      6024.0      0.95566           0.
      6026.0      0.95566           0.
      6028.0      0.95575           0.
      6030.0      0.95575           0.
      6032.0      0.95585           0.
      6034.0      0.95605           0.
      6036.0      0.95595           0.
      6038.0      0.95575           0.
      6040.0      0.95566           0.
      6042.0      0.95566           0.
      6044.0      0.95546           0.
      6046.0      0.95536           0.
      6048.0      0.95536           0.
      6050.0      0.95546           0.
      6052.0      0.95526           0.
      6054.0      0.95496           0.
      6056.0      0.95486           0.
      6058.0      0.95466           0.
      6060.0      0.95456           0.
      6062.0      0.95436           0.
      6064.0      0.95406           0.
      6066.0      0.95387           0.
      6068.0      0.95367           0.
      6070.0      0.95347           0.
      6072.0      0.95317           0.
      6074.0      0.95297           0.
      6076.0      0.95267           0.
      6078.0      0.95237           0.
      6080.0      0.95208           0.
      6082.0      0.95178           0.
      6084.0      0.95148           0.
      6086.0      0.95128           0.
      6088.0      0.95108           0.
      6090.0      0.95078           0.
      6092.0      0.95039           0.
      6094.0      0.94989           0.
      6096.0      0.94949           0.
      6098.0      0.94909           0.
      6100.0      0.94889           0.
      6102.0       0.9485           0.
      6104.0       0.9482           0.
      6106.0       0.9479           0.
      6108.0       0.9476           0.
      6110.0       0.9472           0.
      6112.0      0.94661           0.
      6114.0      0.94621           0.
      6116.0      0.94581           0.
      6118.0      0.94542           0.
      6120.0      0.94492           0.
      6122.0      0.94452           0.
      6124.0      0.94402           0.
      6126.0      0.94343           0.
      6128.0      0.94293           0.
      6130.0      0.94243           0.
      6132.0      0.94184           0.
      6134.0      0.94124           0.
      6136.0      0.94064           0.
      6138.0      0.94005           0.
      6140.0      0.93945           0.
      6142.0      0.93895           0.
      6144.0      0.93846           0.
      6146.0      0.93796           0.
      6148.0      0.93746           0.
      6150.0      0.93696           0.
      6152.0      0.93647           0.
      6154.0      0.93597           0.
      6156.0      0.93567           0.
      6158.0      0.93527           0.
      6160.0      0.93488           0.
      6162.0      0.93438           0.
      6164.0      0.93388           0.
      6166.0      0.93358           0.
      6168.0      0.93329           0.
      6170.0      0.93289           0.
      6172.0      0.93279           0.
      6174.0      0.93269           0.
      6176.0      0.93229           0.
      6178.0      0.93199           0.
      6180.0       0.9316           0.
      6182.0       0.9313           0.
      6184.0       0.9309           0.
      6186.0       0.9307           0.
      6188.0       0.9304           0.
      6190.0       0.9302           0.
      6192.0       0.9299           0.
      6194.0      0.92961           0.
      6196.0      0.92931           0.
      6198.0      0.92901           0.
      6200.0      0.92871           0.
      6202.0      0.92851           0.
      6204.0      0.92821           0.
      6206.0      0.92782           0.
      6208.0      0.92732           0.
      6210.0      0.92712           0.
      6212.0      0.92682           0.
      6214.0      0.92652           0.
      6216.0      0.92633           0.
      6218.0      0.92623           0.
      6220.0      0.92603           0.
      6222.0      0.92593           0.
      6224.0      0.92583           0.
      6226.0      0.92583           0.
      6228.0      0.92583           0.
      6230.0      0.92573           0.
      6232.0      0.92563           0.
      6234.0      0.92553           0.
      6236.0      0.92553           0.
      6238.0      0.92543           0.
      6240.0      0.92553           0.
      6242.0      0.92553           0.
      6244.0      0.92553           0.
      6246.0      0.92563           0.
      6248.0      0.92583           0.
      6250.0      0.92613           0.
      6252.0      0.92643           0.
      6254.0      0.92662           0.
      6256.0      0.92672           0.
      6258.0      0.92702           0.
      6260.0      0.92732           0.
      6262.0      0.92752           0.
      6264.0      0.92762           0.
      6266.0      0.92792           0.
      6268.0      0.92821           0.
      6270.0      0.92841           0.
      6272.0      0.92871           0.
      6274.0      0.92911           0.
      6276.0      0.92951           0.
      6278.0      0.92981           0.
      6280.0       0.9302           0.
      6282.0       0.9306           0.
      6284.0        0.931           0.
      6286.0       0.9313           0.
      6288.0       0.9315           0.
      6290.0      0.93189           0.
      6292.0      0.93219           0.
      6294.0      0.93249           0.
      6296.0      0.93299           0.
      6298.0      0.93338           0.
      6300.0      0.93378           0.
      6302.0      0.93408           0.
      6304.0      0.93448           0.
      6306.0      0.93478           0.
      6308.0      0.93507           0.
      6310.0      0.93537           0.
      6312.0      0.93587           0.
      6314.0      0.93657           0.
      6316.0      0.93726           0.
      6318.0      0.93776           0.
      6320.0      0.93806           0.
      6322.0      0.93855           0.
      6324.0      0.93905           0.
      6326.0      0.93945           0.
      6328.0      0.93995           0.
      6330.0      0.94034           0.
      6332.0      0.94084           0.
      6334.0      0.94134           0.
      6336.0      0.94203           0.
      6338.0      0.94263           0.
      6340.0      0.94313           0.
      6342.0      0.94353           0.
      6344.0      0.94392           0.
      6346.0      0.94442           0.
      6348.0      0.94482           0.
      6350.0      0.94542           0.
      6352.0      0.94591           0.
      6354.0      0.94631           0.
      6356.0      0.94661           0.
      6358.0      0.94691           0.
      6360.0       0.9472           0.
      6362.0       0.9476           0.
      6364.0       0.9482           0.
      6366.0      0.94889           0.
      6368.0      0.94949           0.
      6370.0      0.94999           0.
      6372.0      0.95039           0.
      6374.0      0.95098           0.
      6376.0      0.95158           0.
      6378.0      0.95208           0.
      6380.0      0.95237           0.
      6382.0      0.95277           0.
      6384.0      0.95327           0.
      6386.0      0.95367           0.
      6388.0      0.95406           0.
      6390.0      0.95446           0.
      6392.0      0.95486           0.
      6394.0      0.95506           0.
      6396.0      0.95526           0.
      6398.0      0.95556           0.
      6400.0      0.95566           0.
      6402.0      0.95575           0.
      6404.0      0.95585           0.
      6406.0      0.95585           0.
      6408.0      0.95585           0.
      6410.0      0.95585           0.
      6412.0      0.95575           0.
      6414.0      0.95566           0.
      6416.0      0.95575           0.
      6418.0      0.95566           0.
      6420.0      0.95566           0.
      6422.0      0.95546           0.
      6424.0      0.95526           0.
      6426.0      0.95516           0.
      6428.0      0.95536           0.
      6430.0      0.95556           0.
      6432.0      0.95566           0.
      6434.0      0.95556           0.
      6436.0      0.95546           0.
      6438.0      0.95536           0.
      6440.0      0.95526           0.
      6442.0      0.95506           0.
      6444.0      0.95496           0.
      6446.0      0.95486           0.
      6448.0      0.95466           0.
      6450.0      0.95456           0.
      6452.0      0.95436           0.
      6454.0      0.95406           0.
      6456.0      0.95377           0.
      6458.0      0.95357           0.
      6460.0      0.95327           0.
      6462.0      0.95287           0.
      6464.0      0.95257           0.
      6466.0      0.95237           0.
      6468.0      0.95198           0.
      6470.0      0.95168           0.
      6472.0      0.95138           0.
      6474.0      0.95098           0.
      6476.0      0.95049           0.
      6478.0      0.95009           0.
      6480.0      0.94979           0.
      6482.0      0.94929           0.
      6484.0       0.9488           0.
      6486.0       0.9483           0.
      6488.0       0.9478           0.
      6490.0       0.9472           0.
      6492.0      0.94671           0.
      6494.0      0.94621           0.
      6496.0      0.94571           0.
      6498.0      0.94542           0.
      6500.0      0.94512           0.
      6502.0      0.94492           0.
      6504.0      0.94452           0.
      6506.0      0.94432           0.
      6508.0      0.94402           0.
      6510.0      0.94392           0.
      6512.0      0.94363           0.
      6514.0      0.94333           0.
      6516.0      0.94303           0.
      6518.0      0.94253           0.
      6520.0      0.94164           0.
      6522.0      0.94044           0.
      6524.0      0.93905           0.
      6526.0      0.93796           0.
      6528.0      0.93736           0.
      6530.0      0.93726           0.
      6532.0      0.93776           0.
      6534.0      0.93855           0.
      6536.0      0.93945           0.
      6538.0      0.93985           0.
      6540.0      0.93975           0.
      6542.0      0.93915           0.
      6544.0      0.93836           0.
      6546.0      0.93766           0.
      6548.0      0.93696           0.
      6550.0      0.93647           0.
      6552.0      0.93587           0.
      6554.0      0.93527           0.
      6556.0      0.93448           0.
      6558.0      0.93358           0.
      6560.0      0.93269           0.
      6562.0      0.93199           0.
      6564.0       0.9313           0.
      6566.0       0.9306           0.
      6568.0      0.92981           0.
      6570.0      0.92901           0.
      6572.0      0.92821           0.
      6574.0      0.92722           0.
      6576.0      0.92633           0.
      6578.0      0.92533           0.
      6580.0      0.92444           0.
      6582.0      0.92354           0.
      6584.0      0.92245           0.
      6586.0      0.92155           0.
      6588.0      0.92056           0.
      6590.0      0.91937           0.
      6592.0      0.91817           0.
      6594.0      0.91708           0.
      6596.0      0.91599           0.
      6598.0      0.91479           0.
      6600.0       0.9135           0.
      6602.0      0.91201           0.
      6604.0      0.91062           0.
      6606.0      0.90922           0.
      6608.0      0.90773           0.
      6610.0      0.90614           0.
      6612.0      0.90445           0.
      6614.0      0.90276           0.
      6616.0      0.90097           0.
      6618.0      0.89908           0.
      6620.0      0.89719           0.
      6622.0      0.89531           0.
      6624.0      0.89342           0.
      6626.0      0.89153           0.
      6628.0      0.88944           0.
      6630.0      0.88725           0.
      6632.0      0.88507           0.
      6634.0      0.88298           0.
      6636.0      0.88079           0.
      6638.0       0.8785           0.
      6640.0      0.87622           0.
      6642.0      0.87383           0.
      6644.0      0.87134           0.
      6646.0      0.86876           0.
      6648.0      0.86608           0.
      6650.0      0.86329           0.
      6652.0      0.86051           0.
      6654.0      0.85762           0.
      6656.0      0.85464           0.
      6658.0      0.85156           0.
      6660.0      0.84828           0.
      6662.0       0.8448           0.
      6664.0      0.84112           0.
      6666.0      0.83754           0.
      6668.0      0.83376           0.
      6670.0      0.82979           0.
      6672.0      0.82571           0.
      6674.0      0.82143           0.
      6676.0      0.81696           0.
      6678.0      0.81259           0.
      6680.0      0.80811           0.
      6682.0      0.80354           0.
      6684.0      0.79906           0.
      6686.0      0.79439           0.
      6688.0      0.78992           0.
      6690.0      0.78524           0.
      6692.0      0.78067           0.
      6694.0       0.7763           0.
      6696.0      0.77192           0.
      6698.0      0.76765           0.
      6700.0      0.76347           0.
      6702.0      0.75939           0.
      6704.0      0.75562           0.
      6706.0      0.75184           0.
      6708.0      0.74836           0.
      6710.0      0.74488           0.
      6712.0       0.7415           0.
      6714.0      0.73822           0.
      6716.0      0.73533           0.
      6718.0      0.73255           0.
      6720.0      0.73006           0.
      6722.0      0.72778           0.
      6724.0      0.72559           0.
      6726.0       0.7236           0.
      6728.0      0.72181           0.
      6730.0      0.72032           0.
      6732.0      0.71903           0.
      6734.0      0.71774           0.
      6736.0      0.71654           0.
      6738.0      0.71545           0.
      6740.0      0.71445           0.
      6742.0      0.71356           0.
      6744.0      0.71276           0.
      6746.0      0.71197           0.
      6748.0      0.71137           0.
      6750.0      0.71068           0.
      6752.0      0.70998           0.
      6754.0      0.70938           0.
      6756.0      0.70859           0.
      6758.0      0.70779           0.
      6760.0       0.7071           0.
      6762.0       0.7065           0.
      6764.0        0.706           0.
      6766.0      0.70561           0.
      6768.0      0.70541           0.
      6770.0      0.70531           0.
      6772.0      0.70561           0.
      6774.0        0.706           0.
      6776.0       0.7068           0.
      6778.0      0.70779           0.
      6780.0      0.70919           0.
      6782.0      0.71088           0.
      6784.0      0.71286           0.
      6786.0      0.71545           0.
      6788.0      0.71853           0.
      6790.0      0.72191           0.
      6792.0      0.72559           0.
      6794.0      0.72987           0.
      6796.0      0.73454           0.
      6798.0      0.73971           0.
      6800.0      0.74557           0.
      6802.0      0.75154           0.
      6804.0        0.758           0.
      6806.0      0.76506           0.
      6808.0      0.77252           0.
      6810.0      0.78037           0.
      6812.0      0.78843           0.
      6814.0      0.79678           0.
      6816.0      0.80543           0.
      6818.0      0.81378           0.
      6820.0      0.82273           0.
      6822.0      0.83187           0.
      6824.0      0.84122           0.
      6826.0      0.85057           0.
      6828.0      0.85961           0.
      6830.0      0.86836           0.
      6832.0      0.87651           0.
      6834.0      0.88397           0.
      6836.0      0.89073           0.
      6838.0       0.8966           0.
      6840.0      0.90137           0.
      6842.0      0.90495           0.
      6844.0      0.90724           0.
      6846.0      0.90813           0.
      6848.0      0.90734           0.
      6850.0      0.90475           0.
      6852.0      0.90008           0.
      6854.0      0.89342           0.
      6856.0      0.88467           0.
      6858.0      0.87393           0.
      6860.0       0.8611           0.
      6862.0      0.84609           0.
      6864.0      0.82919           0.
      6866.0       0.8105           0.
      6868.0      0.79002           0.
      6870.0      0.76775           0.
      6872.0      0.74378           0.
      6874.0      0.71843           0.
      6876.0      0.69199           0.
      6878.0      0.66454           0.
      6880.0      0.63651           0.
      6882.0      0.60976           0.
      6884.0      0.58083           0.
      6886.0       0.5521           0.
      6888.0      0.52356           0.
      6890.0      0.49543           0.
      6892.0      0.46798           0.
      6894.0      0.44124           0.
      6896.0      0.41559           0.
      6898.0      0.39083           0.
      6900.0      0.36667           0.
      6902.0      0.34351           0.
      6904.0      0.32153           0.
      6906.0      0.30066           0.
      6908.0      0.28087           0.
      6910.0      0.26218           0.
      6912.0      0.24458           0.
      6914.0      0.22828           0.
      6916.0      0.21296           0.
      6918.0      0.19954           0.
      6920.0      0.18602           0.
      6922.0      0.17359           0.
      6924.0      0.16206           0.
      6926.0      0.15132           0.
      6928.0      0.14128           0.
      6930.0      0.13213           0.
      6932.0      0.12348           0.
      6934.0      0.11563           0.
      6936.0      0.10837           0.
      6938.0      0.10161           0.
      6940.0     0.095347           0.
      6942.0     0.089471           0.
      6944.0     0.083953           0.
      6946.0     0.078922           0.
      6948.0      0.07417           0.
      6950.0     0.069785           0.
      6952.0     0.065709           0.
      6954.0     0.061851           0.
      6956.0     0.058272           0.
      6958.0     0.054951           0.
      6960.0     0.051819           0.
      6962.0     0.048876           0.
      6964.0     0.046112           0.
      6966.0     0.043527           0.
      6968.0     0.041141           0.
      6970.0     0.038934           0.
      6972.0     0.036806           0.
      6974.0     0.034878           0.
      6976.0     0.033028           0.
      6998.0     0.024389           0.
      7000.0     0.023215           0.
      7002.0     0.022102           0.
      7004.0     0.021048           0.
      7006.0     0.020044           0.
      7008.0     0.019089           0.
      7010.0     0.018175           0.
      7012.0      0.01732           0.
      7014.0     0.016504           0.
      7016.0     0.015739           0.
      7018.0     0.014993           0.
      7020.0     0.014297           0.
      7022.0     0.013621           0.
      7024.0     0.012985           0.
      7026.0     0.012388           0.
      7028.0     0.011811           0.
      7030.0     0.011265           0.
      7032.0     0.010738           0.
      7034.0     0.010251           0.
      7036.0    0.0097813           0.
      7038.0    0.0093388           0.
      7040.0    0.0089163           0.
      7042.0    0.0085146           0.
      7044.0    0.0081358           0.
      7046.0    0.0077769           0.
      7048.0    0.0074319           0.
      7050.0    0.0071038           0.
      7052.0    0.0067946           0.
      7054.0    0.0065977           0.
      7056.0    0.0063164           0.
      7058.0    0.0060499           0.
      7060.0    0.0057994           0.
      7062.0    0.0055617           0.
      7064.0     0.005335           0.
      7066.0    0.0051193           0.
      7068.0    0.0049155           0.
      7070.0    0.0047266           0.
      7072.0    0.0045486           0.
      7074.0    0.0043806           0.
      7076.0    0.0042245           0.
      7078.0    0.0040734           0.
      7080.0    0.0039272           0.
      7082.0     0.003789           0.
      7084.0    0.0036618           0.
      7086.0    0.0035405           0.
      7088.0    0.0034231           0.
      7090.0    0.0033098           0.
      7092.0    0.0032024           0.
      7094.0     0.003102           0.
      7096.0    0.0030016           0.
      7098.0    0.0029051           0.
      7100.0    0.0028147           0.
      7102.0    0.0027272           0.
      7104.0    0.0026447           0.
      7106.0    0.0025631           0.
      7108.0    0.0024826           0.
      7110.0     0.002405           0.
      7112.0    0.0023305           0.
      7114.0    0.0022579           0.
      7116.0    0.0021873           0.
      7118.0    0.0021197           0.
      7120.0    0.0020531           0.
      7122.0    0.0019885           0.
      7124.0    0.0019248           0.
      7126.0    0.0018642           0.
      7128.0    0.0018045           0.
      7130.0    0.0017449           0.
      7132.0    0.0016892           0.
      7134.0    0.0016355           0.
      7136.0    0.0015828           0.
      7138.0    0.0015321           0.
      7140.0    0.0014834           0.
      7142.0    0.0014377           0.
      7144.0    0.0013929           0.
      7146.0    0.0013482           0.
      7148.0    0.0013034           0.
      7150.0    0.0012607           0.
      7152.0    0.0012199           0.
      7154.0    0.0011811           0.
      7156.0    0.0011424           0.
      7158.0    0.0011056           0.
      7160.0    0.0010698           0.
      7162.0     0.001035           0.
      7164.0    0.0010012           0.
      7166.0    9.6908E-4           0.
      7168.0    9.3746E-4           0.
      7170.0    9.0674E-4           0.
      7172.0    8.7711E-4           0.
      7174.0    8.4858E-4           0.
      7176.0    8.2223E-4           0.
      7178.0    7.9817E-4           0.
      7180.0    7.7461E-4           0.
      7182.0    7.5124E-4           0.
      7184.0    7.2887E-4           0.
      7186.0    7.0759E-4           0.
      7188.0    6.8771E-4           0.
      7190.0    6.6842E-4           0.
      7192.0    6.5043E-4           0.
      7194.0    6.3382E-4           0.
      7196.0    6.1722E-4           0.
      7198.0    6.0101E-4           0.
      7200.0    5.8580E-4           0.
      7202.0    5.7148E-4           0.
      7204.0    5.5776E-4           0.
      7206.0    5.4524E-4           0.
      7208.0    5.3321E-4           0.
      7210.0    5.2088E-4           0.
      7212.0    5.0865E-4           0.
      7214.0    4.9702E-4           0.
      7216.0    4.8598E-4           0.
      7218.0    4.7564E-4           0.
      7220.0    4.6530E-4           0.
      7222.0    4.5516E-4           0.
      7224.0    4.4552E-4           0.
      7226.0    4.3557E-4           0.
      7228.0    4.2563E-4           0.
      7230.0    4.1668E-4           0.
      7232.0    4.0823E-4           0.
      7234.0    3.9948E-4           0.
      7236.0    3.9053E-4           0.
      7238.0    3.8258E-4           0.
      7240.0    3.7403E-4           0.
      7242.0    3.6528E-4           0.
      7244.0    3.5723E-4           0.
      7246.0    3.4907E-4           0.
      7248.0    3.4092E-4           0.
      7250.0    3.3317E-4           0.
      7252.0    3.2571E-4           0.
      7254.0    3.1895E-4           0.
      7256.0    3.1249E-4           0.
      7258.0    3.0573E-4           0.
      7260.0    2.9897E-4           0.
      7262.0    2.9250E-4           0.
      7264.0    2.8634E-4           0.
      7266.0    2.8017E-4           0.
      7268.0    2.7391E-4           0.
      7270.0    2.6834E-4           0.
      7272.0    2.6258E-4           0.
      7274.0    2.5611E-4           0.
      7276.0    2.4945E-4           0.
      7278.0    2.4359E-4           0.
      7280.0    2.3862E-4           0.
      7282.0    2.3394E-4           0.
      7284.0    2.2877E-4           0.
      7286.0    2.2330E-4           0.
      7288.0    2.1853E-4           0.
      7290.0    2.1386E-4           0.
      7292.0    2.0859E-4           0.
      7294.0    2.0382E-4           0.
      7296.0    1.9934E-4           0.
      7298.0    1.9457E-4           0.
      7300.0    1.9049E-4           0.
      7302.0    1.8672E-4           0.
      7304.0    1.8204E-4           0.
      7306.0    1.7797E-4           0.
      7308.0    1.7469E-4           0.
      7310.0    1.7131E-4           0.
      7312.0    1.6773E-4           0.
      7314.0    1.6385E-4           0.
      7316.0    1.6027E-4           0.
      7318.0    1.5699E-4           0.
      7320.0    1.5331E-4           0.
      7322.0    1.5013E-4           0.
      7324.0    1.4744E-4           0.
      7326.0    1.4486E-4           0.
      7328.0    1.4218E-4           0.
      7330.0    1.3929E-4           0.
      7332.0    1.3611E-4           0.
      7334.0    1.3323E-4           0.
      7336.0    1.3094E-4           0.
      7338.0    1.2845E-4           0.
      7340.0    1.2577E-4           0.
      7342.0    1.2309E-4           0.
      7344.0    1.2070E-4           0.
      7346.0    1.1831E-4           0.
      7348.0    1.1553E-4           0.
      7350.0    1.1374E-4           0.
      7352.0    1.1265E-4           0.
      7354.0    1.1096E-4           0.
      7356.0    1.0887E-4           0.
      7358.0    1.0758E-4           0.
      7360.0    1.0628E-4           0.
      7362.0    1.0489E-4           0.
      7364.0    1.0270E-4           0.
      7366.0    1.0002E-4           0.
      7368.0    9.8737E-5           0.
      7370.0    9.7763E-5           0.
      7372.0    9.6112E-5           0.
      7374.0    9.4770E-5           0.
      7376.0    9.3985E-5           0.
      7378.0    9.3150E-5           0.
      7380.0    9.2384E-5           0.
      7382.0    9.1032E-5           0.
      7384.0    8.9371E-5           0.
      7386.0    8.8507E-5           0.
      7388.0    8.7413E-5           0.
      7390.0    8.5782E-5           0.
      7392.0    8.4023E-5           0.
      7394.0    8.2730E-5           0.
      7396.0    8.1915E-5           0.
      7398.0    8.0831E-5           0.
      7400.0    7.9887E-5           0.
      7402.0    7.8703E-5           0.
      7404.0    7.7620E-5           0.
      7406.0    7.7212E-5           0.
      7408.0    7.6556E-5           0.
      7410.0    7.5591E-5           0.
      7412.0    7.4587E-5           0.
      7414.0    7.3126E-5           0.
      7416.0    7.1217E-5           0.
      7418.0    6.9944E-5           0.
      7420.0    6.9248E-5           0.
      7422.0    6.8542E-5           0.
      7424.0    6.8055E-5           0.
      7426.0    6.7260E-5           0.
      7428.0    6.6385E-5           0.
      7430.0    6.5232E-5           0.
      7432.0    6.4058E-5           0.
      7434.0    6.2627E-5           0.
      7436.0    6.1444E-5           0.
      7438.0    6.0410E-5           0.
      7440.0    5.9415E-5           0.
      7442.0    5.8441E-5           0.
      7444.0    5.7516E-5           0.
      7446.0    5.6661E-5           0.
      7448.0    5.5369E-5           0.
      7450.0    5.4424E-5           0.
      7452.0    5.3788E-5           0.
      7454.0    5.2893E-5           0.
      7456.0    5.1929E-5           0.
      7458.0    5.0805E-5           0.
      7460.0    4.9781E-5           0.
      7462.0    4.9155E-5           0.
      7464.0    4.8200E-5           0.
      7466.0    4.7276E-5           0.
      7468.0    4.6689E-5           0.
      7470.0    4.5735E-5           0.
      7472.0    4.5118E-5           0.
      7474.0    4.4591E-5           0.
      7476.0    4.3428E-5           0.
      7478.0    4.3120E-5           0.
      7480.0    4.2921E-5           0.
      7482.0    4.1937E-5           0.
      7484.0    4.1469E-5           0.
      7486.0    4.0893E-5           0.
      7488.0    3.9889E-5           0.
      7490.0    3.9292E-5           0.
      7492.0    3.8845E-5           0.
      7494.0    3.8397E-5           0.
      7496.0    3.8009E-5           0.
      7498.0    3.8278E-5           0.
      7500.0    3.8825E-5           0.
      7502.0    3.8845E-5           0.
      7504.0    3.8169E-5           0.
      7506.0    3.7950E-5           0.
      7508.0    3.7840E-5           0.
      7510.0    3.7105E-5           0.
      7512.0    3.6498E-5           0.
      7514.0    3.6210E-5           0.
      7516.0    3.5772E-5           0.
      7518.0    3.5703E-5           0.
      7520.0    3.5375E-5           0.
      7522.0    3.4430E-5           0.
      7524.0    3.3893E-5           0.
      7526.0    3.4003E-5           0.
      7528.0    3.4540E-5           0.
      7530.0    3.4579E-5           0.
      7532.0    3.4082E-5           0.
      7534.0    3.3754E-5           0.
      7536.0    3.3446E-5           0.
      7538.0    3.2601E-5           0.
      7540.0    3.1905E-5           0.
      7542.0    3.1229E-5           0.
      7544.0    3.0762E-5           0.
      7546.0    3.1219E-5           0.
      7548.0    3.1408E-5           0.
      7550.0    3.1249E-5           0.
      7552.0    3.1020E-5           0.
      7554.0    3.0215E-5           0.
      7556.0    2.9608E-5           0.
      7558.0    2.9588E-5           0.
      7560.0    2.9578E-5           0.
      7562.0    2.9439E-5           0.
      7564.0    2.9479E-5           0.
      7566.0    2.9459E-5           0.
      7568.0    2.8902E-5           0.
      7570.0    2.7819E-5           0.
      7572.0    2.7341E-5           0.
      7574.0    2.7550E-5           0.
      7576.0    2.7103E-5           0.
      7578.0    2.6069E-5           0.
      7580.0    2.5482E-5           0.
      7582.0    2.5492E-5           0.
      7584.0    2.5462E-5           0.
      7586.0    2.5124E-5           0.
      7588.0    2.5214E-5           0.
      7590.0    2.4866E-5           0.
      7592.0    2.3812E-5           0.
      7594.0    2.3185E-5           0.
      7596.0    2.2947E-5           0.
      7598.0    2.2738E-5           0.
      7600.0    2.2490E-5           0.
      7602.0    2.2161E-5           0.
      7604.0    2.1456E-5           0.
      7606.0    2.1117E-5           0.
      7608.0    2.1346E-5           0.
      7610.0    2.1217E-5           0.
      7612.0    2.0929E-5           0.
      7614.0    2.0630E-5           0.
      7616.0    2.0342E-5           0.
      7618.0    2.0272E-5           0.
      7620.0    2.0243E-5           0.
      7622.0    2.0412E-5           0.
      7624.0    2.0690E-5           0.
      7626.0    2.0710E-5           0.
      7628.0    2.0451E-5           0.
      7630.0    2.0531E-5           0.
      7632.0    2.0610E-5           0.
      7634.0    2.0561E-5           0.
      7636.0    1.9765E-5           0.
      7638.0    1.8960E-5           0.
      7640.0    1.8721E-5           0.
      7642.0    1.8562E-5           0.
      7644.0    1.9049E-5           0.
      7646.0    2.0044E-5           0.
      7648.0    2.0074E-5           0.
      7650.0    1.9129E-5           0.
      7652.0    1.8622E-5           0.
      7654.0    1.8731E-5           0.
      7656.0    1.9348E-5           0.
      7658.0    1.9248E-5           0.
      7660.0    1.8294E-5           0.
      7662.0    1.7359E-5           0.
      7664.0    1.7150E-5           0.
      7666.0    1.8055E-5           0.
      7668.0    1.8552E-5           0.
      7670.0    1.8254E-5           0.
      7672.0    1.7916E-5           0.
      7674.0    1.7956E-5           0.
      7676.0    1.8254E-5           0.
      7678.0    1.8383E-5           0.
      7680.0    1.8105E-5           0.
      7682.0    1.7449E-5           0.
      7684.0    1.6862E-5           0.
      7686.0    1.6633E-5           0.
      7688.0    1.6087E-5           0.
      7690.0    1.6136E-5           0.
      7692.0    1.6604E-5           0.
      7694.0    1.6683E-5           0.
      7696.0    1.6286E-5           0.
      7698.0    1.5649E-5           0.
      7700.0    1.5818E-5           0.
      7702.0    1.6027E-5           0.
      7704.0    1.5818E-5           0.
      7706.0    1.5421E-5           0.
      7708.0    1.5778E-5           0.
      7710.0    1.6156E-5           0.
      7712.0    1.6405E-5           0.
      7714.0    1.6276E-5           0.
      7716.0    1.6166E-5           0.
      7718.0    1.6226E-5           0.
      7720.0    1.6574E-5           0.
      7722.0    1.7220E-5           0.
      7724.0    1.6812E-5           0.
      7726.0    1.6087E-5           0.
      7728.0    1.5222E-5           0.
      7730.0    1.4754E-5           0.
      7732.0    1.5271E-5           0.
      7734.0    1.6226E-5           0.
      7736.0    1.6783E-5           0.
      7738.0    1.6176E-5           0.
      7740.0    1.5580E-5           0.
      7742.0    1.5321E-5           0.
      7744.0    1.5391E-5           0.
      7746.0    1.5242E-5           0.
      7748.0    1.4963E-5           0.
      7750.0    1.5281E-5           0.
      7752.0    1.5719E-5           0.
      7754.0    1.5918E-5           0.
      7756.0    1.6047E-5           0.
      7758.0    1.5769E-5           0.
      7760.0    1.5470E-5           0.
      7762.0    1.4834E-5           0.
      7764.0    1.4655E-5           0.
      7766.0    1.5261E-5           0.
      7768.0    1.5212E-5           0.
      7770.0    1.4307E-5           0.
      7772.0    1.4277E-5           0.
      7774.0    1.4088E-5           0.
      7776.0    1.3651E-5           0.
      7778.0    1.4048E-5           0.
      7780.0    1.4506E-5           0.
      7782.0    1.4158E-5           0.
      7784.0    1.3293E-5           0.
      7786.0    1.3014E-5           0.
      7788.0    1.3899E-5           0.
      7790.0    1.4247E-5           0.
      7792.0    1.3581E-5           0.
      7794.0    1.3631E-5           0.
      7796.0    1.4247E-5           0.
      7798.0    1.4218E-5           0.
      7800.0    1.3303E-5           0.
      7802.0    1.2517E-5           0.
      7804.0    1.3134E-5           0.
      7806.0    1.3144E-5           0.
      7808.0    1.2199E-5           0.
      7810.0    1.1782E-5           0.
      7812.0    1.2458E-5           0.
      7814.0    1.2637E-5           0.
      7816.0    1.2468E-5           0.
      7818.0    1.2657E-5           0.
      7820.0    1.2706E-5           0.
      7822.0    1.2458E-5           0.
      7824.0    1.1006E-5           0.
      7826.0    9.9920E-6           0.
      7828.0    1.0479E-5           0.
      7830.0    1.1951E-5           0.
      7832.0    1.3243E-5           0.
      7834.0    1.4436E-5           0.
      7836.0    1.4804E-5           0.
      7838.0    1.3681E-5           0.
      7840.0    1.1811E-5           0.
      7842.0    1.0927E-5           0.
      7844.0    1.1702E-5           0.
      7846.0    1.1802E-5           0.
      7848.0    1.1623E-5           0.
      7850.0    1.2985E-5           0.
      7852.0    1.3830E-5           0.
      7854.0    1.3283E-5           0.
      7856.0    1.2497E-5           0.
      7858.0    1.2497E-5           0.
      7860.0    1.2607E-5           0.
      7862.0    1.1911E-5           0.
      7864.0    1.1712E-5           0.
      7866.0    1.1971E-5           0.
      7868.0    1.2259E-5           0.
      7870.0    1.3144E-5           0.
      7872.0    1.3044E-5           0.
      7874.0    1.2537E-5           0.
      7876.0    1.2806E-5           0.
      7878.0    1.3452E-5           0.
      7880.0    1.3144E-5           0.
      7882.0    1.2776E-5           0.
      7884.0    1.3840E-5           0.
      7886.0    1.4188E-5           0.
      7888.0    1.2348E-5           0.
      7890.0    1.1454E-5           0.
      7892.0    1.1692E-5           0.
      7894.0    1.1990E-5           0.
      7896.0    1.2667E-5           0.
      7898.0    1.3154E-5           0.
      7900.0    1.2517E-5           0.
      7902.0    1.2179E-5           0.
      7904.0    1.2368E-5           0.
      7906.0    1.2826E-5           0.
      7908.0    1.2895E-5           0.
      7910.0    1.2368E-5           0.
      7912.0    1.1802E-5           0.
      7914.0    1.1503E-5           0.
      7916.0    1.1891E-5           0.
      7918.0    1.2587E-5           0.
      7920.0    1.2488E-5           0.
      7922.0    1.1553E-5           0.
      7924.0    1.1076E-5           0.
      7926.0    1.0946E-5           0.
      7928.0    1.0449E-5           0.
      7930.0    1.0191E-5           0.
      7932.0    1.0479E-5           0.
      7934.0    1.0986E-5           0.
      7936.0    1.0668E-5           0.
      7938.0    1.0111E-5           0.
      7940.0    1.0758E-5           0.
      7942.0    1.0777E-5           0.
      7944.0    9.9721E-6           0.
      7946.0    7.9558E-6           0.
      7948.0    6.7389E-6           0.
      7950.0    7.8445E-6           0.
      7952.0    8.7194E-6           0.
      7954.0    8.1616E-6           0.
      7956.0    8.1239E-6           0.
      7958.0    8.7999E-6           0.
      7960.0    8.8059E-6           0.
      7962.0    8.3247E-6           0.
      7964.0    7.9320E-6           0.
      7966.0    7.2589E-6           0.
      7968.0    7.3782E-6           0.
      7970.0    8.5623E-6           0.
      7972.0    8.8019E-6           0.
      7974.0    9.7723E-6           0.
      7976.0    9.9195E-6           0.
      7978.0    8.2710E-6           0.
      7980.0    6.9755E-6           0.
      7982.0    7.8375E-6           0.
      7984.0    1.0390E-5           0.
      7986.0    1.0698E-5           0.
      7988.0    1.0201E-5           0.
      7990.0    1.0738E-5           0.
      7992.0    1.1434E-5           0.
      7994.0    1.1752E-5           0.
      7996.0    1.1553E-5           0.
      7998.0    1.1444E-5           0.
      8000.0    4.3279E-7           0.
      8002.0    4.7614E-7           0.
      8004.0    4.5287E-7           0.
      8006.0    4.5536E-7           0.
      8008.0    4.1151E-7           0.
      8010.0    3.5275E-7           0.
      8012.0    3.1438E-7           0.
      8014.0    3.1438E-7           0.
      8016.0    3.1438E-7           0.
      8018.0    3.1438E-7           0.
      8020.0    3.1438E-7           0.
      8022.0    3.8437E-7           0.
      8024.0    3.1438E-7           0.
      8026.0    3.1438E-7           0.
      8028.0    3.2372E-7           0.
      8030.0    3.9819E-7           0.
      8032.0    4.4204E-7           0.
      8034.0    3.5932E-7           0.
      8036.0    3.1438E-7           0.
      8038.0    5.9594E-7           0.
      8040.0    1.5649E-6           0.
      8042.0    3.9879E-6           0.
      8044.0    6.2229E-6           0.
      8046.0    6.0668E-6           0.
      8048.0    5.8799E-6           0.
      8050.0    2.1336E-6           0.
      8052.0    1.1026E-6           0.
      8054.0    1.2249E-6           0.
      8056.0    2.1913E-6           0.
      8058.0    1.0559E-6           0.
      8060.0    6.9318E-7           0.
      8062.0    2.1237E-6           0.
      8064.0    3.1805E-6           0.
      8066.0    2.2758E-6           0.
      8068.0    2.0750E-6           0.
      8070.0    1.8801E-6           0.
      8072.0    1.7051E-6           0.
      8074.0    4.5546E-6           0.
      8076.0    1.8751E-6           0.
      8078.0    4.0913E-7           0.
      8080.0    6.7717E-7           0.
      8082.0    8.8367E-7           0.
      8084.0    4.0813E-7           0.
      8086.0    3.1438E-7           0.
      8088.0    3.2303E-7           0.
      8090.0    4.1807E-7           0.
      8092.0    4.1817E-7           0.
      8094.0    3.1438E-7           0.
      8096.0    6.8075E-7           0.
      8098.0    5.1501E-6           0.
      8100.0    1.0400E-5           0.
      8102.0    1.1583E-5           0.
      8104.0    6.2229E-6           0.
      8106.0    8.2412E-7           0.
      8108.0    3.5812E-7           0.
      8110.0    5.3062E-7           0.
      8112.0    4.5874E-7           0.
      8114.0    3.6777E-7           0.
      8116.0    1.0927E-6           0.
      8118.0    3.0950E-6           0.
      8120.0    2.9399E-6           0.
      8122.0    2.4269E-6           0.
      8124.0    1.6097E-6           0.
      8126.0    7.7302E-7           0.
      8128.0    5.3937E-7           0.
      8130.0    6.8930E-7           0.
      8132.0    3.4937E-6           0.
      8134.0    6.4715E-6           0.
      8136.0    1.3571E-6           0.
      8138.0    4.1281E-7           0.
      8140.0    6.7916E-7           0.
      8142.0    8.2054E-7           0.
      8144.0    5.1531E-7           0.
      8146.0    1.0579E-6           0.
      8148.0    2.3494E-6           0.
      8150.0    7.7510E-7           0.
      8152.0    3.2710E-7           0.
      8154.0    1.1076E-6           0.
      8156.0    4.5635E-6           0.
      8158.0    2.5840E-6           0.
      8160.0    9.3537E-7           0.
      8162.0    8.3287E-7           0.
      8164.0    6.0151E-7           0.
      8166.0    3.6299E-7           0.
      8168.0    3.1438E-7           0.
      8170.0    5.7745E-7           0.
      8172.0    1.7180E-6           0.
      8174.0    2.5800E-6           0.
      8176.0    8.3038E-7           0.
      8178.0    4.3657E-7           0.
      8180.0    9.3209E-7           0.
      8182.0    1.0211E-6           0.
      8184.0    4.7077E-7           0.
      8186.0    6.7807E-7           0.
      8188.0    1.7777E-6           0.
      8190.0    9.5118E-7           0.
      8192.0    3.6458E-7           0.
      8194.0    4.1738E-7           0.
      8196.0    5.4772E-7           0.
      8198.0    1.4178E-6           0.
      8200.0    2.3026E-6           0.
      8202.0    3.6081E-6           0.
      8204.0    2.0859E-6           0.
      8206.0    2.4776E-6           0.
      8208.0    7.2837E-6           0.
      8210.0    4.4492E-6           0.
      8212.0    3.3685E-6           0.
      8214.0    4.0326E-6           0.
      8216.0    1.3353E-6           0.
      8218.0    5.0487E-7           0.
      8220.0    3.1438E-7           0.
      8222.0    3.1438E-7           0.
      8224.0    6.0380E-7           0.
      8226.0    2.9330E-6           0.
      8228.0    1.9994E-6           0.
      8230.0    8.5951E-7           0.
      8232.0    6.5918E-7           0.
      8234.0    4.2056E-7           0.
      8236.0    5.1780E-7           0.
      8238.0    2.0153E-6           0.
      8240.0    6.0807E-6           0.
      8242.0    3.0642E-6           0.
      8244.0    1.2448E-6           0.
      8246.0    1.1483E-6           0.
      8248.0    1.1951E-6           0.
      8250.0    3.2511E-6           0.
      8252.0    8.8258E-6           0.
      8254.0    2.6099E-6           0.
      8256.0    9.0793E-7           0.
      8258.0    4.6888E-6           0.
      8260.0    6.1851E-6           0.
      8262.0    4.0913E-6           0.
      8264.0    5.9932E-6           0.
      8266.0    1.8741E-6           0.
      8268.0    5.2943E-7           0.
      8270.0    5.1034E-7           0.
      8272.0    8.5325E-7           0.
      8274.0    1.0151E-6           0.
      8276.0    1.6047E-6           0.
      8278.0    1.1841E-6           0.
      8280.0    7.3484E-7           0.
      8282.0    3.0175E-6           0.
      8284.0    1.0986E-5           0.
      8286.0    1.0907E-5           0.
      8288.0    1.1901E-5           0.
      8290.0    6.3780E-6           0.
      8292.0    8.6956E-7           0.
      8294.0    4.2772E-7           0.
      8296.0    6.2308E-7           0.
      8298.0    8.4878E-7           0.
      8300.0    9.7902E-7           0.
      8302.0    1.5749E-6           0.
      8304.0    2.3553E-6           0.
      8306.0    3.0861E-6           0.
      8308.0    2.1267E-6           0.
      8310.0    5.3838E-7           0.
      8312.0    8.6836E-7           0.
      8314.0    1.4009E-6           0.
      8316.0    5.8421E-7           0.
      8318.0    5.0348E-7           0.
      8320.0    9.6639E-7           0.
      8322.0    1.5510E-6           0.
      8324.0    6.3024E-6           0.
      8326.0    1.8264E-5           0.
      8328.0    1.0459E-5           0.
      8330.0    5.3698E-6           0.
      8332.0    2.2231E-6           0.
      8334.0    1.7916E-6           0.
      8336.0    4.0435E-6           0.
      8338.0    4.7117E-6           0.
      8340.0    1.2776E-6           0.
      8342.0    1.8483E-6           0.
      8344.0    3.7284E-6           0.
      8346.0    2.9201E-6           0.
      8348.0    4.3269E-6           0.
      8350.0    6.4247E-6           0.
      8352.0    7.0332E-6           0.
      8354.0    1.7827E-6           0.
      8356.0    4.1976E-7           0.
      8358.0    5.0268E-7           0.
      8360.0    7.7282E-7           0.
      8362.0    2.3872E-6           0.
      8364.0    5.4106E-6           0.
      8366.0    5.9883E-6           0.
      8368.0    3.0891E-6           0.
      8370.0    1.5490E-6           0.
      8372.0    1.6653E-6           0.
      8374.0    8.5951E-7           0.
      8376.0    7.1774E-7           0.
      8378.0    3.2730E-6           0.
      8380.0    1.3631E-5           0.
      8382.0    1.2209E-5           0.
      8384.0    2.6287E-6           0.
      8386.0    7.5979E-7           0.
      8388.0    5.5279E-7           0.
      8390.0    1.3691E-6           0.
      8392.0    2.9051E-6           0.
      8394.0    5.5438E-6           0.
      8396.0    1.0131E-5           0.
      8398.0    1.0479E-5           0.
      8400.0    4.2056E-6           0.
      8402.0    1.7956E-6           0.
      8404.0    4.0336E-6           0.
      8406.0    1.1573E-5           0.
      8408.0    6.2328E-6           0.
      8410.0    2.8186E-6           0.
      8412.0    3.1477E-6           0.
      8414.0    1.1056E-6           0.
      8416.0    3.8328E-7           0.
      8418.0    4.0863E-7           0.
      8420.0    4.8608E-7           0.
      8422.0    5.6612E-7           0.
      8424.0    2.0978E-6           0.
      8426.0    8.6846E-6           0.
      8428.0    7.2877E-6           0.
      8430.0    4.6003E-6           0.
      8432.0    5.7337E-6           0.
      8434.0    3.8357E-6           0.
      8436.0    8.2909E-7           0.
      8438.0    8.5663E-7           0.
      8440.0    2.4935E-6           0.
      8442.0    7.0372E-6           0.
      8444.0    1.1802E-5           0.
      8446.0    1.1106E-5           0.
      8448.0    1.0131E-5           0.
      8450.0    4.8926E-6           0.
      8452.0    4.9900E-6           0.
      8454.0    1.2140E-5           0.
      8456.0    9.3905E-6           0.
      8458.0    3.8964E-6           0.
      8460.0    6.4625E-6           0.
      8462.0    1.5341E-5           0.
      8464.0    1.7996E-5           0.
      8466.0    1.7996E-5           0.
      8468.0    1.9576E-5           0.
      8470.0    1.5928E-5           0.
      8472.0    4.1102E-6           0.
      8474.0    1.3780E-6           0.
      8476.0    3.4768E-6           0.
      8478.0    8.7751E-6           0.
      8480.0    1.1374E-5           0.
      8482.0    1.5938E-5           0.
      8484.0    2.1277E-5           0.
      8486.0    2.1167E-5           0.
      8488.0    1.2428E-5           0.
      8490.0    6.3203E-6           0.
      8492.0    1.3303E-5           0.
      8494.0    2.2509E-5           0.
      8496.0    1.1652E-5           0.
      8498.0    1.1275E-5           0.
      8500.0    1.6981E-5           0.
      8502.0    1.4754E-5           0.
      8504.0    1.1682E-5           0.
      8506.0    1.4585E-5           0.
      8508.0    1.6703E-5           0.
      8510.0    1.0260E-5           0.
      8512.0    1.0340E-5           0.
      8514.0    1.6504E-5           0.
      8516.0    1.3084E-5           0.
      8518.0    1.7498E-5           0.
      8520.0    2.3335E-5           0.
      8522.0    1.8234E-5           0.
      8524.0    1.8065E-5           0.
      8526.0    7.7490E-6           0.
      8528.0    1.5599E-6           0.
      8530.0    2.2330E-6           0.
      8532.0    9.8528E-6           0.
      8534.0    2.2321E-5           0.
      8536.0    3.1020E-5           0.
      8538.0    2.8346E-5           0.
      8540.0    2.6874E-5           0.
      8542.0    2.2569E-5           0.
      8544.0    1.6455E-5           0.
      8546.0    1.6683E-5           0.
      8548.0    1.5063E-5           0.
      8550.0    1.0797E-5           0.
      8552.0    1.5013E-5           0.
      8554.0    2.0720E-5           0.
      8556.0    2.0312E-5           0.
      8558.0    1.6653E-5           0.
      8560.0    1.6703E-5           0.
      8562.0    2.1813E-5           0.
      8564.0    2.2042E-5           0.
      8566.0    2.4031E-5           0.
      8568.0    2.8604E-5           0.
      8570.0    2.3076E-5           0.
      8572.0    2.0362E-5           0.
      8574.0    2.7938E-5           0.
      8576.0    3.5991E-5           0.
      8578.0    3.2432E-5           0.
      8580.0    2.5512E-5           0.
      8582.0    3.2313E-5           0.
      8584.0    3.5265E-5           0.
      8586.0    3.4719E-5           0.
      8588.0    3.2153E-5           0.
      8590.0    2.7570E-5           0.
      8592.0    2.6944E-5           0.
      8594.0    3.0463E-5           0.
      8596.0    3.7214E-5           0.
      8598.0    4.3199E-5           0.
      8600.0    4.6083E-5           0.
      8602.0    4.6043E-5           0.
      8604.0    5.0706E-5           0.
      8606.0    4.9473E-5           0.
      8608.0    4.6918E-5           0.
      8610.0    4.6371E-5           0.
      8612.0    4.1469E-5           0.
      8614.0    3.4430E-5           0.
      8616.0    3.1796E-5           0.
      8618.0    3.8159E-5           0.
      8620.0    4.9453E-5           0.
      8622.0    5.3440E-5           0.
      8624.0    4.5287E-5           0.
      8626.0    3.6130E-5           0.
      8628.0    3.1597E-5           0.
      8630.0    3.5872E-5           0.
      8632.0    4.3468E-5           0.
      8634.0    4.5088E-5           0.
      8636.0    5.1282E-5           0.
      8638.0    5.7924E-5           0.
      8640.0    6.0410E-5           0.
      8642.0    5.8540E-5           0.
      8644.0    4.8101E-5           0.
      8646.0    3.3376E-5           0.
      8648.0    3.0493E-5           0.
      8650.0    3.3774E-5           0.
      8652.0    4.9990E-5           0.
      8654.0    7.0759E-5           0.
      8656.0    7.1187E-5           0.
      8658.0    5.2804E-5           0.
      8660.0    4.3736E-5           0.
      8662.0    4.5456E-5           0.
      8664.0    4.4104E-5           0.
      8666.0    4.6848E-5           0.
      8668.0    4.7445E-5           0.
      8670.0    5.3619E-5           0.
      8672.0    5.9743E-5           0.
      8674.0    5.4752E-5           0.
      8676.0    5.6552E-5           0.
      8678.0    5.5508E-5           0.
      8680.0    5.2694E-5           0.
      8682.0    5.5617E-5           0.
      8684.0    5.9266E-5           0.
      8686.0    5.7188E-5           0.
      8688.0    5.6462E-5           0.
      8690.0    5.9206E-5           0.
      8692.0    6.2517E-5           0.
      8694.0    6.5719E-5           0.
      8696.0    6.2627E-5           0.
      8698.0    6.1036E-5           0.
      8700.0    6.1006E-5           0.
      8702.0    6.5729E-5           0.
      8704.0    7.9340E-5           0.
      8706.0    8.4132E-5           0.
      8708.0    7.7659E-5           0.
      8710.0    6.6912E-5           0.
      8712.0    6.6524E-5           0.
      8714.0    7.6258E-5           0.
      8716.0    8.0334E-5           0.
      8718.0    7.6466E-5           0.
      8720.0    7.4746E-5           0.
      8722.0    6.7648E-5           0.
      8724.0    6.0996E-5           0.
      8726.0    6.1235E-5           0.
      8728.0    6.6186E-5           0.
      8730.0    7.5850E-5           0.
      8732.0    8.3535E-5           0.
      8734.0    8.0722E-5           0.
      8736.0    8.6409E-5           0.
      8738.0    9.1221E-5           0.
      8740.0    8.7294E-5           0.
      8742.0    8.4072E-5           0.
      8744.0    7.5452E-5           0.
      8746.0    7.3941E-5           0.
      8748.0    7.3732E-5           0.
      8750.0    7.3195E-5           0.
      8752.0    7.8684E-5           0.
      8754.0    8.1507E-5           0.
      8756.0    7.8246E-5           0.
      8758.0    7.9708E-5           0.
      8760.0    8.0294E-5           0.
      8762.0    7.5432E-5           0.
      8764.0    7.3195E-5           0.
      8766.0    7.7888E-5           0.
      8768.0    8.3535E-5           0.
      8770.0    8.8914E-5           0.
      8772.0    9.4034E-5           0.
      8774.0    9.9821E-5           0.
      8776.0    9.4711E-5           0.
      8778.0    9.3279E-5           0.
      8780.0    9.9055E-5           0.
      8782.0    1.0191E-4           0.
      8784.0    9.7723E-5           0.
      8786.0    8.6369E-5           0.
      8788.0    8.6081E-5           0.
      8790.0    9.3557E-5           0.
      8792.0    9.6073E-5           0.
      8794.0    1.0052E-4           0.
      8796.0    9.6828E-5           0.
      8798.0    8.8487E-5           0.
      8800.0    9.4492E-5           0.
      8802.0    1.0042E-4           0.
      8804.0    1.0648E-4           0.
      8806.0    1.1265E-4           0.
      8808.0    1.0628E-4           0.
      8810.0    9.9821E-5           0.
      8812.0    8.8487E-5           0.
      8814.0    8.3187E-5           0.
      8816.0    9.1996E-5           0.
      8818.0    9.2503E-5           0.
      8820.0    8.2561E-5           0.
      8822.0    8.4778E-5           0.
      8824.0    9.7793E-5           0.
      8826.0    9.7117E-5           0.
      8828.0    8.9183E-5           0.
      8830.0    9.0903E-5           0.
      8832.0    9.1827E-5           0.
      8834.0    9.3577E-5           0.
      8836.0    9.2205E-5           0.
      8838.0    8.6896E-5           0.
      8840.0    8.5603E-5           0.
      8842.0    8.3575E-5           0.
      8844.0    8.5047E-5           0.
      8846.0    8.8387E-5           0.
      8848.0    8.5265E-5           0.
      8850.0    8.3406E-5           0.
      8852.0    9.1917E-5           0.
      8854.0    1.0241E-4           0.
      8856.0    1.0787E-4           0.
      8858.0    1.0599E-4           0.
      8860.0    9.8896E-5           0.
      8862.0    9.8668E-5           0.
      8864.0    1.0400E-4           0.
      8866.0    1.0062E-4           0.
      8868.0    9.6938E-5           0.
      8870.0    9.9821E-5           0.
      8872.0    1.0221E-4           0.
      8874.0    9.5933E-5           0.
      8876.0    8.7473E-5           0.
      8878.0    8.8626E-5           0.
      8880.0    9.0962E-5           0.
      8882.0    9.2553E-5           0.
      8884.0    9.5645E-5           0.
      8886.0    9.3388E-5           0.
      8888.0    9.3279E-5           0.
      8890.0    1.0121E-4           0.
      8892.0    1.0449E-4           0.
      8894.0    9.2891E-5           0.
      8896.0    9.2911E-5           0.
      8898.0    1.0529E-4           0.
      8900.0    9.9821E-5           0.
      8902.0    9.1897E-5           0.
      8904.0    1.0141E-4           0.
      8906.0    1.0847E-4           0.
      8908.0    1.0897E-4           0.
      8910.0    1.0797E-4           0.
      8912.0    1.0708E-4           0.
      8914.0    1.1294E-4           0.
      8916.0    1.1444E-4           0.
      8918.0    1.1165E-4           0.
      8920.0    1.1195E-4           0.
      8922.0    1.1255E-4           0.
      8924.0    1.0946E-4           0.
      8926.0    1.1016E-4           0.
      8928.0    1.1116E-4           0.
      8930.0    1.0827E-4           0.
      8932.0    1.1543E-4           0.
      8934.0    1.2845E-4           0.
      8936.0    1.2527E-4           0.
      8938.0    1.1692E-4           0.
      8940.0    1.1881E-4           0.
      8942.0    1.1931E-4           0.
      8944.0    1.2100E-4           0.
      8946.0    1.2348E-4           0.
      8948.0    1.2368E-4           0.
      8950.0    1.2289E-4           0.
      8952.0    1.1921E-4           0.
      8954.0    1.1652E-4           0.
      8956.0    1.1523E-4           0.
      8958.0    1.1652E-4           0.
      8960.0    1.2895E-4           0.
      8962.0    1.3442E-4           0.
      8964.0    1.2726E-4           0.
      8966.0    1.2995E-4           0.
      8968.0    1.3422E-4           0.
      8970.0    1.2696E-4           0.
      8972.0    1.2378E-4           0.
      8974.0    1.2925E-4           0.
      8976.0    1.3263E-4           0.
      8978.0    1.3919E-4           0.
      8980.0    1.3919E-4           0.
      8982.0    1.3114E-4           0.
      8984.0    1.3512E-4           0.
      8986.0    1.4705E-4           0.
      8988.0    1.5401E-4           0.
      8990.0    1.4983E-4           0.
      8992.0    1.3860E-4           0.
      8994.0    1.2915E-4           0.
      8996.0    1.4367E-4           0.
      8998.0    1.5848E-4           0.
      9000.0    1.5391E-4           0.
      9002.0    1.4993E-4           0.
      9004.0    1.5142E-4           0.
      9006.0    1.5421E-4           0.
      9008.0    1.4058E-4           0.
      9010.0    1.2816E-4           0.
      9012.0    1.3372E-4           0.
      9014.0    1.3909E-4           0.
      9016.0    1.4208E-4           0.
      9018.0    1.5450E-4           0.
      9020.0    1.4257E-4           0.
      9022.0    1.3044E-4           0.
      9024.0    1.3671E-4           0.
      9026.0    1.4029E-4           0.
      9028.0    1.4098E-4           0.
      9030.0    1.3730E-4           0.
      9032.0    1.4168E-4           0.
      9034.0    1.3999E-4           0.
      9036.0    1.3691E-4           0.
      9038.0    1.4725E-4           0.
      9040.0    1.4546E-4           0.
      9042.0    1.3343E-4           0.
      9044.0    1.3253E-4           0.
      9046.0    1.3014E-4           0.
      9048.0    1.3124E-4           0.
      9050.0    1.4665E-4           0.
      9052.0    1.5560E-4           0.
      9054.0    1.4904E-4           0.
      9056.0    1.5073E-4           0.
      9058.0    1.5291E-4           0.
      9060.0    1.5590E-4           0.
      9062.0    1.4983E-4           0.
      9064.0    1.4794E-4           0.
      9066.0    1.5321E-4           0.
      9068.0    1.5092E-4           0.
      9070.0    1.5232E-4           0.
      9072.0    1.5112E-4           0.
      9074.0    1.5252E-4           0.
      9076.0    1.5142E-4           0.
      9078.0    1.4665E-4           0.
      9080.0    1.3919E-4           0.
      9082.0    1.3989E-4           0.
      9084.0    1.4735E-4           0.
      9086.0    1.5301E-4           0.
      9088.0    1.5450E-4           0.
      9090.0    1.5341E-4           0.
      9092.0    1.5520E-4           0.
      9094.0    1.6007E-4           0.
      9096.0    1.6753E-4           0.
      9098.0    1.6633E-4           0.
      9100.0    1.6425E-4           0.
      9102.0    1.5957E-4           0.
      9104.0    1.5957E-4           0.
      9106.0    1.6325E-4           0.
      9108.0    1.6713E-4           0.
      9110.0    1.7687E-4           0.
      9112.0    1.6773E-4           0.
      9114.0    1.5947E-4           0.
      9116.0    1.6773E-4           0.
      9118.0    1.6703E-4           0.
      9120.0    1.7061E-4           0.
      9122.0    1.8075E-4           0.
      9124.0    1.8284E-4           0.
      9126.0    1.7518E-4           0.
      9128.0    1.7101E-4           0.
      9130.0    1.8592E-4           0.
      9132.0    1.8871E-4           0.
      9134.0    1.7986E-4           0.
      9136.0    1.8363E-4           0.
      9138.0    1.8662E-4           0.
      9140.0    1.7618E-4           0.
      9142.0    1.7230E-4           0.
      9144.0    1.8493E-4           0.
      9146.0    1.8403E-4           0.
      9148.0    1.8244E-4           0.
      9150.0    1.9348E-4           0.
      9152.0    2.0292E-4           0.
      9154.0    2.0690E-4           0.
      9156.0    2.0511E-4           0.
      9158.0    1.9656E-4           0.
      9160.0    1.8811E-4           0.
      9162.0    1.9020E-4           0.
      9164.0    1.9497E-4           0.
      9166.0    1.9696E-4           0.
      9168.0    1.9378E-4           0.
      9170.0    1.8960E-4           0.
      9172.0    1.8761E-4           0.
      9174.0    1.9318E-4           0.
      9176.0    1.9467E-4           0.
      9178.0    1.9000E-4           0.
      9180.0    1.9517E-4           0.
      9182.0    2.0243E-4           0.
      9184.0    1.9248E-4           0.
      9186.0    1.8393E-4           0.
      9188.0    1.9089E-4           0.
      9190.0    1.9745E-4           0.
      9192.0    1.9984E-4           0.
      9194.0    2.0770E-4           0.
      9196.0    2.1366E-4           0.
      9198.0    2.1088E-4           0.
      9200.0    2.0919E-4           0.
      9202.0    2.0919E-4           0.
      9204.0    2.1167E-4           0.
      9206.0    2.1098E-4           0.
      9208.0    2.0143E-4           0.
      9210.0    1.8532E-4           0.
      9212.0    1.8383E-4           0.
      9214.0    1.9059E-4           0.
      9216.0    1.8890E-4           0.
      9218.0    1.9218E-4           0.
      9220.0    1.9875E-4           0.
      9222.0    1.9209E-4           0.
      9224.0    1.7926E-4           0.
      9226.0    1.7677E-4           0.
      9228.0    1.8483E-4           0.
      9230.0    1.8165E-4           0.
      9232.0    1.7121E-4           0.
      9234.0    1.6604E-4           0.
      9236.0    1.6803E-4           0.
      9238.0    1.6862E-4           0.
      9240.0    1.6514E-4           0.
      9242.0    1.6683E-4           0.
      9244.0    1.6633E-4           0.
      9246.0    1.6822E-4           0.
      9248.0    1.7180E-4           0.
      9250.0    1.6594E-4           0.
      9252.0    1.6107E-4           0.
      9254.0    1.5232E-4           0.
      9256.0    1.4128E-4           0.
      9258.0    1.4048E-4           0.
      9260.0    1.4118E-4           0.
      9262.0    1.4158E-4           0.
      9264.0    1.4894E-4           0.
      9266.0    1.5928E-4           0.
      9268.0    1.5749E-4           0.
      9270.0    1.4516E-4           0.
      9272.0    1.4039E-4           0.
      9274.0    1.4466E-4           0.
      9276.0    1.4486E-4           0.
      9278.0    1.3681E-4           0.
      9280.0    1.3551E-4           0.
      9282.0    1.4019E-4           0.
      9284.0    1.4029E-4           0.
      9286.0    1.3184E-4           0.
      9288.0    1.2507E-4           0.
      9290.0    1.2766E-4           0.
      9292.0    1.2448E-4           0.
      9294.0    1.1255E-4           0.
      9296.0    1.1483E-4           0.
      9298.0    1.2686E-4           0.
      9300.0    1.3144E-4           0.
      9302.0    1.3154E-4           0.
      9304.0    1.2468E-4           0.
      9306.0    1.1642E-4           0.
      9308.0    1.1185E-4           0.
      9310.0    1.1324E-4           0.
      9312.0    1.0907E-4           0.
      9314.0    1.0032E-4           0.
      9316.0    1.0439E-4           0.
      9318.0    1.0847E-4           0.
      9320.0    1.1046E-4           0.
      9322.0    1.0927E-4           0.
      9324.0    1.0579E-4           0.
      9326.0    1.0340E-4           0.
      9328.0    1.0996E-4           0.
      9330.0    1.1324E-4           0.
      9332.0    1.0807E-4           0.
      9334.0    1.1215E-4           0.
      9336.0    1.1275E-4           0.
      9338.0    1.1722E-4           0.
      9340.0    1.1851E-4           0.
      9342.0    1.0599E-4           0.
      9344.0    9.6798E-5           0.
      9346.0    9.6440E-5           0.
      9348.0    9.9920E-5           0.
      9350.0    9.1241E-5           0.
      9352.0    8.4738E-5           0.
      9354.0    8.7313E-5           0.
      9356.0    8.8894E-5           0.
      9358.0    8.2959E-5           0.
      9360.0    8.5126E-5           0.
      9362.0    9.6798E-5           0.
      9364.0    9.1768E-5           0.
      9366.0    8.5583E-5           0.
      9368.0    9.1012E-5           0.
      9370.0    9.2295E-5           0.
      9372.0    8.7900E-5           0.
      9374.0    9.1897E-5           0.
      9376.0    8.8079E-5           0.
      9378.0    7.9061E-5           0.
      9380.0    8.2034E-5           0.
      9382.0    8.8258E-5           0.
      9384.0    8.4639E-5           0.
      9386.0    7.4826E-5           0.
      9388.0    6.9914E-5           0.
      9390.0    7.8972E-5           0.
      9392.0    8.6051E-5           0.
      9394.0    7.9887E-5           0.
      9396.0    7.9906E-5           0.
      9398.0    8.2084E-5           0.
      9400.0    7.8226E-5           0.
      9402.0    7.9708E-5           0.
      9404.0    8.1239E-5           0.
      9406.0    8.9163E-5           0.
      9408.0    9.3517E-5           0.
      9410.0    7.9141E-5           0.
      9412.0    6.7916E-5           0.
      9414.0    6.5281E-5           0.
      9416.0    6.3969E-5           0.
      9418.0    6.5321E-5           0.
      9420.0    7.0769E-5           0.
      9422.0    7.3633E-5           0.
      9424.0    7.0948E-5           0.
      9426.0    7.0859E-5           0.
      9428.0    6.9358E-5           0.
      9430.0    6.2398E-5           0.
      9432.0    6.3531E-5           0.
      9434.0    6.5082E-5           0.
      9436.0    6.9735E-5           0.
      9438.0    6.9755E-5           0.
      9440.0    7.1137E-5           0.
      9442.0    7.0759E-5           0.
      9444.0    5.9376E-5           0.
      9446.0    5.7317E-5           0.
      9448.0    6.2458E-5           0.
      9450.0    6.3243E-5           0.
      9452.0    6.1573E-5           0.
      9454.0    6.8105E-5           0.
      9456.0    6.6007E-5           0.
      9458.0    5.7944E-5           0.
      9460.0    6.4207E-5           0.
      9462.0    6.6037E-5           0.
      9464.0    6.4546E-5           0.
      9466.0    6.4098E-5           0.
      9468.0    5.8839E-5           0.
      9470.0    5.3211E-5           0.
      9472.0    5.5100E-5           0.
      9474.0    7.0610E-5           0.
      9476.0    7.3295E-5           0.
      9478.0    5.8192E-5           0.
      9480.0    5.4335E-5           0.
      9482.0    5.3112E-5           0.
      9484.0    4.6003E-5           0.
      9486.0    4.7395E-5           0.
      9488.0    4.5218E-5           0.
      9490.0    2.7660E-5           0.
      9492.0    2.6287E-5           0.
      9494.0    3.7015E-5           0.
      9496.0    3.9093E-5           0.
      9498.0    4.4522E-5           0.
      9500.0    4.2474E-5           0.
      9502.0    3.9799E-5           0.
      9504.0    4.2692E-5           0.
      9506.0    4.3706E-5           0.
      9508.0    4.7146E-5           0.
      9510.0    5.1670E-5           0.
      9512.0    4.2851E-5           0.
      9514.0    3.0235E-5           0.
      9516.0    2.4518E-5           0.
      9518.0    3.9640E-5           0.
      9520.0    5.8789E-5           0.
      9522.0    4.6908E-5           0.
      9524.0    3.2362E-5           0.
      9526.0    3.6091E-5           0.
      9528.0    3.8546E-5           0.
      9530.0    3.2939E-5           0.
      9532.0    3.6588E-5           0.
      9534.0    4.5208E-5           0.
      9536.0    4.5337E-5           0.
      9538.0    3.6946E-5           0.
      9540.0    3.5763E-5           0.
      9542.0    3.7423E-5           0.
      9544.0    3.2352E-5           0.
      9546.0    2.2639E-5           0.
      9548.0    1.8214E-5           0.
      9550.0    2.1157E-5           0.
      9552.0    2.8037E-5           0.
      9554.0    2.6745E-5           0.
      9556.0    2.4200E-5           0.
      9558.0    3.0304E-5           0.
      9560.0    4.1042E-5           0.
      9562.0    3.8815E-5           0.
      9564.0    3.1984E-5           0.
      9566.0    2.4816E-5           0.
      9568.0    2.6099E-5           0.
      9570.0    3.5782E-5           0.
      9572.0    2.8395E-5           0.
      9574.0    2.1674E-5           0.
      9576.0    1.3820E-5           0.
      9578.0    1.0708E-5           0.
      9580.0    1.9119E-5           0.
      9582.0    2.9290E-5           0.
      9584.0    3.3168E-5           0.
      9586.0    3.1090E-5           0.
      9588.0    2.6874E-5           0.
      9590.0    2.9419E-5           0.
      9592.0    3.4112E-5           0.
      9594.0    3.6498E-5           0.
      9596.0    3.6588E-5           0.
      9598.0    3.4957E-5           0.
      9600.0    3.4202E-5           0.
      9602.0    3.5753E-5           0.
      9604.0    3.0076E-5           0.
      9606.0    1.6286E-5           0.
      9608.0    9.6600E-6           0.
      9610.0    1.4744E-5           0.
      9612.0    1.5192E-5           0.
      9614.0    1.7866E-5           0.
      9616.0    2.2987E-5           0.
      9618.0    2.1992E-5           0.
      9620.0    1.5878E-5           0.
      9622.0    1.0837E-5           0.
      9624.0    1.5709E-5           0.
      9626.0    2.8544E-5           0.
      9628.0    2.4786E-5           0.
      9630.0    2.5522E-5           0.
      9632.0    2.8355E-5           0.
      9634.0    2.3533E-5           0.
      9636.0    1.6315E-5           0.
      9638.0    1.8065E-5           0.
      9640.0    1.5202E-5           0.
      9642.0    1.4814E-5           0.
      9644.0    2.7262E-5           0.
      9646.0    3.4042E-5           0.
      9648.0    2.8863E-5           0.
      9650.0    2.2569E-5           0.
      9652.0    8.6995E-6           0.
      9654.0    9.5426E-6           0.
      9656.0    2.8027E-5           0.
      9658.0    2.7133E-5           0.
      9660.0    1.9089E-5           0.
      9662.0    1.5808E-5           0.
      9664.0    2.6069E-5           0.
      9666.0    3.1776E-5           0.
      9668.0    2.8425E-5           0.
      9670.0    3.4072E-5           0.
      9672.0    3.7314E-5           0.
      9674.0    2.9916E-5           0.
      9676.0    2.6387E-5           0.
      9678.0    1.7618E-5           0.
      9680.0    5.6592E-6           0.
      9682.0    3.9034E-6           0.
      9684.0    6.1314E-6           0.
      9686.0    1.8175E-5           0.
      9688.0    3.2074E-5           0.
      9690.0    2.4816E-5           0.
      9692.0    1.6355E-5           0.
      9694.0    1.5679E-5           0.
      9696.0    2.2917E-5           0.
      9698.0    2.5860E-5           0.
      9700.0    2.6894E-5           0.
      9702.0    2.8137E-5           0.
      9704.0    2.3335E-5           0.
      9706.0    1.5957E-5           0.
      9708.0    9.1489E-6           0.
      9710.0    1.3701E-5           0.
      9712.0    2.1804E-5           0.
      9714.0    1.7290E-5           0.
      9716.0    1.5242E-5           0.
      9718.0    1.4844E-5           0.
      9720.0    1.4118E-5           0.
      9722.0    1.5142E-5           0.
      9724.0    1.5788E-5           0.
      9726.0    1.5281E-5           0.
      9728.0    6.0181E-6           0.
      9730.0    1.8473E-6           0.
      9732.0    5.2615E-6           0.
      9734.0    1.4565E-5           0.
      9736.0    9.9264E-6           0.
      9738.0    5.4534E-6           0.
      9740.0    8.8328E-6           0.
      9742.0    1.2408E-5           0.
      9744.0    1.1454E-5           0.
      9746.0    1.6633E-5           0.
      9748.0    2.1525E-5           0.
      9750.0    2.2569E-5           0.
      9752.0    1.3959E-5           0.
      9754.0    6.7359E-6           0.
      9756.0    6.7250E-6           0.
      9758.0    1.0549E-5           0.
      9760.0    1.9049E-5           0.
      9762.0    1.9905E-5           0.
      9764.0    1.5391E-5           0.
      9766.0    2.1207E-5           0.
      9768.0    2.1764E-5           0.
      9770.0    1.3213E-5           0.
      9772.0    4.1648E-6           0.
      9774.0    4.1410E-6           0.
      9776.0    5.1571E-6           0.
      9778.0    1.0350E-5           0.
      9780.0    2.1744E-5           0.
      9782.0    1.0976E-5           0.
      9784.0    3.6101E-6           0.
      9786.0    4.3030E-6           0.
      9788.0    7.4637E-6           0.
      9790.0    9.0565E-6           0.
      9792.0    1.3442E-5           0.
      9794.0    2.2012E-5           0.
      9796.0    2.5711E-5           0.
      9798.0    2.5989E-5           0.
      9800.0    1.7409E-5           0.
      9802.0    8.4410E-6           0.
      9804.0    2.8833E-6           0.
      9806.0    1.1802E-6           0.
      9808.0    4.7137E-6           0.
      9810.0    1.7807E-5           0.
      9812.0    1.9278E-5           0.
      9814.0    1.1255E-5           0.
      9816.0    1.1444E-5           0.
      9818.0    1.8344E-5           0.
      9820.0    9.0067E-6           0.
      9822.0    5.7308E-6           0.
      9824.0    1.1106E-5           0.
      9826.0    7.4090E-6           0.
      9828.0    2.5920E-6           0.
      9830.0    3.1438E-6           0.
      9832.0    8.4798E-6           0.
      9834.0    1.2945E-5           0.
      9836.0    7.0143E-6           0.
      9838.0    4.3329E-6           0.
      9840.0    3.8218E-6           0.
      9842.0    9.7584E-6           0.
      9844.0    1.5301E-5           0.
      9846.0    2.5621E-6           0.
      9848.0    4.4929E-7           0.
      9850.0    1.6156E-6           0.
      9852.0    1.2746E-5           0.
      9854.0    1.4595E-5           0.
      9856.0    6.8005E-6           0.
      9858.0    3.1239E-6           0.
      9860.0    2.0879E-6           0.
      9862.0    3.2740E-6           0.
      9864.0    1.7956E-6           0.
      9866.0    2.0342E-6           0.
      9868.0    6.2597E-6           0.
      9870.0    8.3078E-6           0.
      9872.0    9.2106E-6           0.
      9874.0    1.3313E-5           0.
      9876.0    1.2716E-5           0.
      9878.0    9.8737E-6           0.
      9880.0    7.5243E-6           0.
      9882.0    4.2046E-6           0.
      9884.0    3.6757E-6           0.
      9886.0    7.3315E-6           0.
      9888.0    6.3780E-6           0.
      9890.0    1.3601E-6           0.
      9892.0    4.5665E-7           0.
      9894.0    4.6232E-7           0.
      9896.0    5.6651E-7           0.
      9898.0    1.2110E-6           0.
      9900.0    4.2583E-6           0.
      9902.0    5.9962E-6           0.
      9904.0    5.1382E-6           0.
      9906.0    7.3056E-6           0.
      9908.0    1.5430E-5           0.
      9910.0    2.5920E-5           0.
      9912.0    1.5470E-5           0.
      9914.0    4.3388E-6           0.
      9916.0    3.2651E-6           0.
      9918.0    5.8948E-6           0.
      9920.0    5.1143E-6           0.
      9922.0    4.5655E-6           0.
      9924.0    4.5446E-6           0.
      9926.0    7.5353E-6           0.
      9928.0    9.4711E-6           0.
      9930.0    4.9712E-6           0.
      9932.0    5.1471E-6           0.
      9934.0    6.6971E-6           0.
      9936.0    8.9759E-6           0.
      9938.0    1.4744E-5           0.
      9940.0    1.9845E-5           0.
      9942.0    6.5192E-6           0.
      9944.0    4.1877E-6           0.
      9946.0    7.3126E-6           0.
      9948.0    3.3436E-6           0.
      9950.0    7.5939E-6           0.
      9952.0    9.3468E-6           0.
      9954.0    3.0583E-6           0.
      9956.0    7.9926E-7           0.
      9958.0    7.8137E-7           0.
      9960.0    6.7697E-7           0.
      9962.0    5.9018E-7           0.
      9964.0    1.8015E-6           0.
      9966.0    9.6729E-7           0.
      9968.0    1.2706E-6           0.
      9970.0    7.9887E-6           0.
      9972.0    1.5729E-5           0.
      9974.0    2.2201E-5           0.
      9976.0    2.6735E-5           0.
      9978.0    2.9032E-5           0.
      9980.0    3.0304E-5           0.
      9982.0    2.8027E-5           0.
      9984.0    2.5592E-5           0.
      9986.0    2.1257E-5           0.
      9988.0    1.6683E-5           0.
      9990.0    1.7469E-5           0.
      9992.0    1.2895E-5           0.
      9994.0    1.3283E-5           0.
      9996.0    1.7329E-5           0.
      9998.0    1.8771E-5           0.
     10000.0    1.6206E-5           0.
     10002.0    1.0589E-5           0.
     10004.0    2.0312E-6           0.
     10006.0    8.9550E-7           0.
     10008.0    6.9487E-6           0.
     10010.0    2.3683E-5           0.
     10012.0    1.3989E-5           0.
     10014.0    4.1459E-6           0.
     10016.0    3.8894E-6           0.
     10018.0    6.8672E-6           0.
     10020.0    1.0340E-5           0.
     10022.0    7.0402E-6           0.
     10024.0    3.2879E-6           0.
     10026.0    6.4536E-6           0.
     10028.0    1.1702E-5           0.
     10030.0    3.4460E-6           0.
     10032.0    6.5669E-7           0.
     10034.0    6.1205E-7           0.
     10036.0    1.0131E-6           0.
     10038.0    1.1016E-6           0.
     10040.0    1.2547E-6           0.
     10042.0    4.8439E-6           0.
     10044.0    5.5508E-6           0.
     10046.0    3.5275E-6           0.
     10048.0    5.3629E-6           0.
     10050.0    7.6576E-6           0.
     10052.0    7.7600E-6           0.
     10054.0    4.6451E-6           0.
     10056.0    1.4039E-6           0.
     10058.0    2.2042E-6           0.
     10060.0    3.5514E-6           0.
     10062.0    1.9914E-6           0.
     10064.0    5.2833E-6           0.
     10066.0    1.4844E-5           0.
     10068.0    2.2201E-5           0.
     10070.0    1.6156E-5           0.
     10072.0    1.0161E-5           0.
     10074.0    4.1748E-6           0.
     10076.0    3.3446E-6           0.
     10078.0    4.6669E-6           0.
     10080.0    3.5464E-6           0.
     10082.0    1.7011E-6           0.
     10084.0    7.0938E-7           0.
     10086.0    2.0978E-6           0.
     10088.0    6.1274E-6           0.
     10090.0    6.6216E-6           0.
     10092.0    1.3263E-5           0.
     10094.0    1.8662E-5           0.
     10096.0    4.9712E-6           0.
     10098.0    1.9537E-6           0.
     10100.0    4.8141E-6           0.
     10102.0    5.6274E-6           0.
     10104.0    5.6532E-6           0.
     10106.0    7.4080E-6           0.
     10108.0    7.0223E-6           0.
     10110.0    7.6277E-6           0.
     10112.0    2.9807E-6           0.
     10114.0    2.1028E-6           0.
     10116.0    4.8876E-6           0.
     10118.0    3.3207E-6           0.
     10120.0    4.5267E-6           0.
     10122.0    7.6665E-6           0.
     10124.0    4.2086E-6           0.
     10126.0    5.9018E-6           0.
     10128.0    8.3635E-6           0.
     10130.0    7.5939E-6           0.
     10132.0    9.3836E-6           0.
     10134.0    9.8528E-6           0.
     10136.0    1.0658E-5           0.
     10138.0    1.4337E-5           0.
     10140.0    1.2070E-5           0.
     10142.0    1.1096E-5           0.
     10144.0    1.6116E-5           0.
     10146.0    1.4705E-5           0.
     10148.0    2.5920E-6           0.
     10150.0    3.7095E-7           0.
     10152.0    3.6458E-7           0.
     10154.0    1.5450E-6           0.
     10156.0    9.4770E-6           0.
     10158.0    1.0211E-5           0.
     10160.0    6.1404E-6           0.
     10162.0    1.0201E-5           0.
     10164.0    2.8495E-6           0.
     10166.0    8.6796E-7           0.
     10168.0    2.3036E-6           0.
     10170.0    2.9061E-6           0.
     10172.0    2.2112E-6           0.
     10174.0    2.7133E-6           0.
     10176.0    3.3197E-6           0.
     10178.0    3.6399E-6           0.
     10180.0    4.2662E-6           0.
     10182.0    3.4102E-6           0.
     10184.0    2.1794E-6           0.
     10186.0    4.8747E-6           0.
     10188.0    7.9479E-6           0.
     10190.0    3.8695E-6           0.
     10192.0    3.5375E-6           0.
     10194.0    1.1106E-6           0.
     10196.0    5.9395E-7           0.
     10198.0    2.3394E-6           0.
     10200.0    1.5669E-6           0.
     10202.0    3.8874E-7           0.
     10204.0    9.4124E-7           0.
     10206.0    7.9628E-6           0.
     10208.0    1.4913E-5           0.
     10210.0    6.7777E-6           0.
     10212.0    6.7220E-6           0.
     10214.0    1.2299E-5           0.
     10216.0    2.0143E-5           0.
     10218.0    2.3146E-5           0.
     10220.0    1.9149E-5           0.
     10222.0    8.8994E-6           0.
     10224.0    5.1223E-6           0.
     10226.0    5.5548E-6           0.
     10228.0    9.7494E-6           0.
     10230.0    9.5894E-6           0.
     10232.0    9.0366E-6           0.
     10234.0    1.5520E-5           0.
     10236.0    1.1294E-5           0.
     10238.0    3.0563E-6           0.
     10240.0    1.4138E-6           0.
     10242.0    3.4390E-6           0.
     10244.0    4.3716E-6           0.
     10246.0    2.1277E-6           0.
     10248.0    3.1825E-6           0.
     10250.0    1.4595E-5           0.
     10252.0    2.3663E-5           0.
     10254.0    1.1493E-5           0.
     10256.0    4.9712E-6           0.
     10258.0    1.2935E-5           0.
     10260.0    2.0451E-5           0.
     10262.0    1.8721E-5           0.
     10264.0    2.0968E-5           0.
     10266.0    1.5510E-5           0.
     10268.0    4.0714E-6           0.
     10270.0    1.2836E-6           0.
     10272.0    9.7186E-7           0.
     10274.0    3.9640E-6           0.
     10276.0    7.9578E-6           0.
     10278.0    4.8270E-6           0.
     10280.0    1.0032E-5           0.
     10282.0    1.0618E-5           0.
     10284.0    7.2320E-6           0.
     10286.0    2.6844E-6           0.
     10288.0    1.3293E-6           0.
     10290.0    5.3987E-6           0.
     10292.0    1.0768E-5           0.
     10294.0    6.3621E-6           0.
     10296.0    4.6391E-6           0.
     10298.0    4.7027E-6           0.
     10300.0    5.8709E-6           0.
     10302.0    1.1831E-5           0.
     10304.0    2.1873E-5           0.
     10306.0    2.1744E-5           0.
     10308.0    1.9547E-5           0.
     10310.0    1.6136E-5           0.
     10312.0    9.3557E-6           0.
     10314.0    5.6274E-6           0.
     10316.0    4.2951E-6           0.
     10318.0    4.9155E-6           0.
     10320.0    2.0193E-6           0.
     10322.0    5.8381E-7           0.
     10324.0    6.6007E-7           0.
     10326.0    7.4935E-7           0.
     10328.0    2.4160E-6           0.
     10330.0    5.9326E-6           0.
     10332.0    4.7823E-6           0.
     10334.0    1.0290E-5           0.
     10336.0    8.7612E-6           0.
     10338.0    4.6898E-6           0.
     10340.0    4.6242E-6           0.
     10342.0    2.8892E-6           0.
     10344.0    6.2706E-6           0.
     10346.0    6.9228E-6           0.
     10348.0    9.0445E-6           0.
     10350.0    1.4337E-5           0.
     10352.0    1.1652E-5           0.
     10354.0    8.9322E-6           0.
     10356.0    2.6546E-6           0.
     10358.0    1.4655E-6           0.
     10360.0    3.0762E-6           0.
     10362.0    1.7101E-6           0.
     10364.0    1.3820E-6           0.
     10366.0    8.9898E-6           0.
     10368.0    2.8157E-5           0.
     10370.0    1.6017E-5           0.
     10372.0    7.1237E-6           0.
     10374.0    5.8640E-6           0.
     10376.0    5.4365E-6           0.
     10378.0    1.8125E-6           0.
     10380.0    3.7075E-7           0.
     10382.0    4.1211E-7           0.
     10384.0    2.7968E-6           0.
     10386.0    9.1917E-6           0.
     10388.0    4.7564E-6           0.
     10390.0    4.2513E-6           0.
     10392.0    6.3203E-6           0.
     10394.0    9.1897E-6           0.
     10396.0    1.5938E-5           0.
     10398.0    1.2806E-5           0.
     10400.0    7.2271E-6           0.
     10402.0    9.2931E-6           0.
     10404.0    8.5643E-6           0.
     10406.0    1.7081E-6           0.
     10408.0    1.9139E-6           0.
     10410.0    1.0012E-5           0.
     10412.0    1.8314E-5           0.
     10414.0    1.1175E-5           0.
     10416.0    2.4647E-6           0.
     10418.0    2.6884E-6           0.
     10420.0    3.3168E-6           0.
     10422.0    1.5987E-6           0.
     10424.0    4.1976E-6           0.
     10426.0    1.2229E-5           0.
     10428.0    1.9338E-5           0.
     10430.0    1.6912E-5           0.
     10432.0    1.5301E-5           0.
     10434.0    1.6146E-5           0.
     10436.0    1.2189E-5           0.
     10438.0    7.4508E-6           0.
     10440.0    7.8425E-6           0.
     10442.0    1.2130E-5           0.
     10444.0    1.2736E-5           0.
     10446.0    7.9628E-6           0.
     10448.0    5.5070E-6           0.
     10450.0    2.8306E-6           0.
     10452.0    4.9801E-6           0.
     10454.0    1.4148E-5           0.
     10456.0    1.4963E-5           0.
     10458.0    3.0662E-6           0.
     10460.0    1.5580E-6           0.
     10462.0    9.1489E-6           0.
     10464.0    1.2786E-5           0.
     10466.0    7.7908E-6           0.
     10468.0    4.1947E-6           0.
     10470.0    4.5824E-6           0.
     10472.0    1.0429E-5           0.
     10474.0    4.3219E-6           0.
     10476.0    4.1310E-6           0.
     10478.0    8.6488E-6           0.
     10480.0    5.6452E-6           0.
     10482.0    9.8190E-7           0.
     10484.0    6.8194E-7           0.
     10486.0    9.7355E-7           0.
     10488.0    1.2050E-6           0.
     10490.0    1.0091E-5           0.
     10492.0    2.0143E-5           0.
     10494.0    5.1412E-6           0.
     10496.0    2.3424E-6           0.
     10498.0    3.4351E-6           0.
     10500.0    2.4717E-6           0.
     10502.0    2.2887E-6           0.
     10504.0    6.4277E-6           0.
     10506.0    1.0032E-5           0.
     10508.0    3.8884E-6           0.
     10510.0    8.6309E-7           0.
     10512.0    5.9485E-7           0.
     10514.0    1.9765E-6           0.
     10516.0    7.9926E-6           0.
     10518.0    1.0768E-5           0.
     10520.0    1.1235E-5           0.
     10522.0    5.0815E-6           0.
     10524.0    5.9465E-6           0.
     10526.0    7.9688E-6           0.
     10528.0    3.5365E-6           0.
     10530.0    4.2474E-6           0.
     10532.0    1.9099E-5           0.
     10534.0    3.1756E-5           0.
     10536.0    2.6089E-5           0.
     10538.0    1.8900E-5           0.
     10540.0    1.5172E-5           0.
     10542.0    1.7001E-5           0.
     10544.0    1.8363E-5           0.
     10546.0    1.5977E-5           0.
     10548.0    1.5609E-5           0.
     10550.0    1.2130E-5           0.
     10552.0    3.6210E-6           0.
     10554.0    1.5818E-6           0.
     10556.0    3.3078E-6           0.
     10558.0    1.0618E-5           0.
     10560.0    2.2559E-5           0.
     10562.0    1.8871E-5           0.
     10564.0    1.3213E-5           0.
     10566.0    1.9467E-5           0.
     10568.0    2.1446E-5           0.
     10570.0    2.3792E-5           0.
     10572.0    2.7361E-5           0.
     10574.0    2.2430E-5           0.
     10576.0    2.2400E-5           0.
     10578.0    3.0722E-5           0.
     10580.0    3.5633E-5           0.
     10582.0    2.1207E-5           0.
     10584.0    8.2710E-6           0.
     10586.0    2.3106E-6           0.
     10588.0    2.7888E-6           0.
     10590.0    1.0201E-5           0.
     10592.0    2.0412E-5           0.
     10594.0    2.2509E-5           0.
     10596.0    2.4617E-5           0.
     10598.0    2.5174E-5           0.
     10600.0    3.2044E-5           0.
     10602.0    3.4888E-5           0.
     10604.0    1.9298E-5           0.
     10606.0    9.4711E-6           0.
     10608.0    1.3561E-5           0.
     10610.0    2.0799E-5           0.
     10612.0    1.7757E-5           0.
     10614.0    1.1980E-5           0.
     10616.0    1.2020E-5           0.
     10618.0    2.0869E-5           0.
     10620.0    2.0571E-5           0.
     10622.0    1.7926E-5           0.
     10624.0    2.2221E-5           0.
     10626.0    2.6238E-5           0.
     10628.0    2.5293E-5           0.
     10630.0    2.0302E-5           0.
     10632.0    1.7916E-5           0.
     10634.0    2.0054E-5           0.
     10636.0    1.6882E-5           0.
     10638.0    1.2667E-5           0.
     10640.0    9.5098E-6           0.
     10642.0    8.5464E-6           0.
     10644.0    1.9248E-5           0.
     10646.0    1.9676E-5           0.
     10648.0    1.7767E-5           0.
     10650.0    1.2686E-5           0.
     10652.0    9.5277E-6           0.
     10654.0    1.4029E-5           0.
     10656.0    1.7926E-5           0.
     10658.0    1.8075E-5           0.
     10660.0    1.6812E-5           0.
     10662.0    7.5552E-6           0.
     10664.0    4.4900E-6           0.
     10666.0    1.3293E-5           0.
     10668.0    3.3158E-5           0.
     10670.0    2.6765E-5           0.
     10672.0    1.8204E-5           0.
     10674.0    2.0352E-5           0.
     10676.0    2.9121E-5           0.
     10678.0    3.1259E-5           0.
     10680.0    2.4170E-5           0.
     10682.0    1.7200E-5           0.
     10684.0    1.7479E-5           0.
     10686.0    1.7459E-5           0.
     10688.0    1.2438E-5           0.
     10690.0    1.3909E-5           0.
     10692.0    2.3345E-5           0.
     10694.0    2.9519E-5           0.
     10696.0    3.1766E-5           0.
     10698.0    3.1100E-5           0.
     10700.0    1.2150E-5           0.
     10702.0    2.5860E-6           0.
     10704.0    4.1996E-6           0.
     10706.0    1.7250E-5           0.
     10708.0    1.7310E-5           0.
     10710.0    3.5007E-6           0.
     10712.0    1.9576E-6           0.
     10714.0    1.0847E-5           0.
     10716.0    2.1456E-5           0.
     10718.0    2.2857E-5           0.
     10720.0    3.0155E-5           0.
     10722.0    2.3106E-5           0.
     10724.0    1.7976E-5           0.
     10726.0    1.9586E-5           0.
     10728.0    2.0660E-5           0.
     10730.0    1.9010E-5           0.
     10732.0    1.3293E-5           0.
     10734.0    1.2169E-5           0.
     10736.0    1.3263E-5           0.
     10738.0    1.4208E-5           0.
     10740.0    2.0213E-5           0.
     10742.0    1.8662E-5           0.
     10744.0    1.6584E-5           0.
     10746.0    1.7876E-5           0.
     10748.0    1.7717E-5           0.
     10750.0    1.2150E-5           0.
     10752.0    1.2309E-5           0.
     10754.0    2.0859E-5           0.
     10756.0    3.0692E-5           0.
     10758.0    2.6118E-5           0.
     10760.0    2.4886E-5           0.
     10762.0    3.7632E-5           0.
     10764.0    3.6389E-5           0.
     10766.0    2.4289E-5           0.
     10768.0    2.3007E-5           0.
     10770.0    2.3355E-5           0.
     10772.0    1.5162E-5           0.
     10774.0    1.1036E-5           0.
     10776.0    1.5878E-5           0.
     10778.0    2.2579E-5           0.
     10780.0    1.8363E-5           0.
     10782.0    7.1893E-6           0.
     10784.0    5.8809E-6           0.
     10786.0    1.4565E-5           0.
     10788.0    1.7230E-5           0.
     10790.0    1.6673E-5           0.
     10792.0    1.1642E-5           0.
     10794.0    5.2754E-6           0.
     10796.0    7.7411E-6           0.
     10798.0    1.8045E-5           0.
     10800.0    2.4806E-5           0.
     10802.0    3.0205E-5           0.
     10804.0    3.3376E-5           0.
     10806.0    2.9161E-5           0.
     10808.0    2.3782E-5           0.
     10810.0    2.4717E-5           0.
     10812.0    2.7729E-5           0.
     10814.0    3.0970E-5           0.
     10816.0    2.1038E-5           0.
     10818.0    1.6464E-5           0.
     10820.0    2.4985E-5           0.
     10822.0    2.7262E-5           0.
     10824.0    2.5761E-5           0.
     10826.0    2.4150E-5           0.
     10828.0    2.5452E-5           0.
     10830.0    2.6576E-5           0.
     10832.0    2.8077E-5           0.
     10834.0    2.5651E-5           0.
     10836.0    2.3981E-5           0.
     10838.0    2.5104E-5           0.
     10840.0    2.9986E-5           0.
     10842.0    3.1119E-5           0.
     10844.0    2.7103E-5           0.
     10846.0    2.9101E-5           0.
     10848.0    3.0155E-5           0.
     10850.0    3.0304E-5           0.
     10852.0    2.9270E-5           0.
     10854.0    2.5920E-5           0.
     10856.0    3.4768E-5           0.
     10858.0    4.1986E-5           0.
     10860.0    3.8666E-5           0.
     10862.0    4.2792E-5           0.
     10864.0    4.7306E-5           0.
     10866.0    4.5029E-5           0.
     10868.0    5.0308E-5           0.
     10870.0    5.8988E-5           0.
     10872.0    5.5090E-5           0.
     10874.0    5.4514E-5           0.
     10876.0    5.1471E-5           0.
     10878.0    4.6749E-5           0.
     10880.0    4.0177E-5           0.
     10882.0    3.5017E-5           0.
     10884.0    4.0604E-5           0.
     10886.0    4.9125E-5           0.
     10888.0    5.5041E-5           0.
     10890.0    4.7823E-5           0.
     10892.0    4.4164E-5           0.
     10894.0    4.7107E-5           0.
     10896.0    3.9610E-5           0.
     10898.0    3.9580E-5           0.
     10900.0    4.9135E-5           0.
     10902.0    5.2088E-5           0.
     10904.0    3.9541E-5           0.
     10906.0    3.4281E-5           0.
     10908.0    4.5874E-5           0.
     10910.0    5.4235E-5           0.
     10912.0    5.3748E-5           0.
     10914.0    4.8051E-5           0.
     10916.0    5.4335E-5           0.
     10918.0    6.2398E-5           0.
     10920.0    6.2428E-5           0.
     10922.0    5.8332E-5           0.
     10924.0    5.4802E-5           0.
     10926.0    5.1501E-5           0.
     10928.0    4.6838E-5           0.
     10930.0    5.2048E-5           0.
     10932.0    5.7725E-5           0.
     10934.0    5.1074E-5           0.
     10936.0    5.0706E-5           0.
     10938.0    5.9972E-5           0.
     10940.0    6.4128E-5           0.
     10942.0    5.3828E-5           0.
     10944.0    4.5098E-5           0.
     10946.0    4.5009E-5           0.
     10948.0    4.6868E-5           0.
     10950.0    5.1094E-5           0.
     10952.0    6.1444E-5           0.
     10954.0    6.7797E-5           0.
     10956.0    6.4019E-5           0.
     10958.0    5.7904E-5           0.
     10960.0    5.7944E-5           0.
     10962.0    6.6106E-5           0.
     10964.0    6.2965E-5           0.
     10966.0    5.8729E-5           0.
     10968.0    5.3818E-5           0.
     10970.0    5.1153E-5           0.
     10972.0    5.8600E-5           0.
     10974.0    5.9157E-5           0.
     10976.0    4.8966E-5           0.
     10978.0    4.4144E-5           0.
     10980.0    5.7745E-5           0.
     10982.0    6.5162E-5           0.
     10984.0    5.7795E-5           0.
     10986.0    5.9067E-5           0.
     10988.0    6.8343E-5           0.
     10990.0    7.2579E-5           0.
     10992.0    6.5868E-5           0.
     10994.0    6.0360E-5           0.
     10996.0    6.1165E-5           0.
     10998.0    7.2738E-5           0.
     11000.0    6.7479E-5           0.
