#  Table crwfpc2comp$wfpc2_f380w_004.tab  Thu 08:19:09 15-May-97

# WAVELENGTH   THROUGHPUT        error
#  ANGSTROMS TRANSMISSION TRANSMISSION

      1850.0    1.6598E-4           0.
      1860.0    6.0098E-6           0.
      1870.0    4.6492E-5           0.
      1880.0    5.8167E-5           0.
      1890.0    1.7828E-5           0.
      1900.0    2.3781E-5           0.
      1910.0    3.2255E-5           0.
      1920.0    1.5027E-5           0.
      1930.0    7.3094E-6           0.
      1940.0    7.3894E-6           0.
      1950.0    1.6988E-5           0.
      1960.0    3.3285E-6           0.
      1970.0    7.5235E-7           0.
      1980.0    2.0970E-6           0.
      1990.0    6.4700E-6           0.
      2000.0    4.1349E-6           0.
      2010.0    2.5142E-6           0.
      2020.0    1.9769E-6           0.
      2030.0    3.8638E-6           0.
      2040.0    4.9123E-6           0.
      2050.0    2.1310E-6           0.
      2060.0    1.6738E-6           0.
      2070.0    2.9204E-6           0.
      2080.0    1.8849E-6           0.
      2090.0    2.0259E-6           0.
      2100.0    2.7213E-6           0.
      2110.0    3.1114E-6           0.
      2120.0    3.4706E-6           0.
      2130.0    2.7313E-6           0.
      2140.0    2.3781E-6           0.
      2150.0    1.2116E-6           0.
      2160.0    6.1158E-7           0.
      2170.0    1.4026E-6           0.
      2180.0    1.6888E-6           0.
      2190.0    1.4967E-6           0.
      2200.0    2.0920E-6           0.
      2210.0    1.1185E-6           0.
      2220.0    6.5060E-7           0.
      2230.0    3.8408E-7           0.
      2240.0    1.0995E-6           0.
      2250.0    1.3226E-6           0.
      2260.0    1.0345E-6           0.
      2270.0    8.6160E-7           0.
      2280.0    7.0943E-7           0.
      2290.0    1.2066E-6           0.
      2300.0    1.3316E-6           0.
      2310.0    1.4357E-6           0.
      2320.0    1.8238E-6           0.
      2330.0    1.1385E-6           0.
      2340.0    9.5034E-7           0.
      2350.0    4.1519E-7           0.
      2360.0    9.9246E-7           0.
      2370.0    9.8786E-7           0.
      2380.0    1.3346E-6           0.
      2390.0    1.7458E-6           0.
      2400.0    1.9529E-6           0.
      2410.0    1.8579E-6           0.
      2420.0    1.4327E-6           0.
      2430.0    1.9979E-6           0.
      2440.0    1.4787E-6           0.
      2450.0    5.1794E-7           0.
      2460.0    9.8716E-7           0.
      2470.0    7.7566E-7           0.
      2480.0    7.1103E-7           0.
      2490.0    8.9722E-7           0.
      2500.0    1.1095E-6           0.
      2510.0    7.7516E-7           0.
      2520.0    1.0925E-6           0.
      2530.0    8.3038E-7           0.
      2540.0    9.7045E-7           0.
      2550.0    6.2029E-7           0.
      2560.0    7.5005E-7           0.
      2570.0    8.7420E-7           0.
      2580.0    7.5385E-7           0.
      2590.0    5.6126E-7           0.
      2600.0    7.7626E-7           0.
      2610.0    1.2506E-6           0.
      2620.0    7.2794E-7           0.
      2630.0    9.6115E-7           0.
      2640.0    7.5755E-7           0.
      2650.0    6.8532E-7           0.
      2660.0    4.0159E-7           0.
      2670.0    4.3720E-7           0.
      2680.0    3.3626E-7           0.
      2690.0    6.2359E-7           0.
      2700.0    1.1305E-6           0.
      2710.0    5.5926E-7           0.
      2720.0    7.6595E-7           0.
      2730.0    9.6475E-7           0.
      2740.0    4.5061E-7           0.
      2750.0    3.1635E-7           0.
      2760.0    3.3536E-7           0.
      2770.0    3.1635E-7           0.
      2780.0    4.7052E-7           0.
      2790.0    1.1815E-6           0.
      2800.0    8.4619E-7           0.
      2810.0    1.2156E-6           0.
      2820.0    1.2986E-6           0.
      2830.0    1.5747E-6           0.
      2840.0    4.4441E-7           0.
      2850.0    1.3616E-6           0.
      2860.0    6.5610E-7           0.
      2870.0    1.0345E-6           0.
      2880.0    7.5475E-7           0.
      2890.0    9.7005E-7           0.
      2900.0    1.0015E-6           0.
      2910.0    1.3786E-6           0.
      2920.0    1.1495E-6           0.
      2930.0    1.0495E-6           0.
      2940.0    1.5727E-6           0.
      2950.0    4.1809E-7           0.
      2960.0    7.2043E-7           0.
      2970.0    1.7848E-6           0.
      2980.0    1.6498E-6           0.
      2990.0    1.3016E-6           0.
      3000.0    1.5987E-6           0.
      3010.0    4.3410E-7           0.
      3020.0    1.0965E-6           0.
      3030.0    1.4037E-6           0.
      3040.0    1.9259E-6           0.
      3050.0    1.3516E-6           0.
      3060.0    1.7888E-6           0.
      3070.0    1.5467E-6           0.
      3080.0    8.6020E-7           0.
      3090.0    1.2556E-6           0.
      3100.0    1.4937E-6           0.
      3110.0    2.4631E-6           0.
      3120.0    1.5637E-6           0.
      3130.0    4.8182E-6           0.
      3140.0    1.1535E-5           0.
      3150.0    2.8703E-5           0.
      3160.0    7.8977E-5           0.
      3170.0    1.7068E-4           0.
      3180.0    3.8908E-4           0.
      3190.0    7.3794E-4           0.
      3200.0    0.0014337           0.
      3210.0    0.0024201           0.
      3220.0    0.0041229           0.
      3230.0    0.0062879           0.
      3240.0    0.0096755           0.
      3250.0     0.013516           0.
      3260.0     0.019029           0.
      3270.0     0.024862           0.
      3290.0     0.030254           0.
      3292.0     0.031735           0.
      3294.0     0.033275           0.
      3296.0     0.034776           0.
      3298.0     0.036217           0.
      3300.0     0.037778           0.
      3302.0     0.039378           0.
      3304.0     0.040919           0.
      3306.0      0.04252           0.
      3308.0      0.04422           0.
      3310.0     0.045941           0.
      3312.0     0.047602           0.
      3314.0     0.049223           0.
      3316.0     0.050944           0.
      3318.0     0.052804           0.
      3320.0     0.054665           0.
      3322.0     0.056526           0.
      3324.0     0.058387           0.
      3326.0     0.060268           0.
      3328.0     0.062329           0.
      3330.0      0.06427           0.
      3332.0     0.066131           0.
      3334.0     0.068152           0.
      3336.0     0.070333           0.
      3338.0     0.072554           0.
      3340.0     0.074695           0.
      3342.0     0.076766           0.
      3344.0     0.079017           0.
      3346.0     0.081418           0.
      3348.0     0.083839           0.
      3350.0       0.0862           0.
      3352.0     0.088461           0.
      3354.0     0.090922           0.
      3356.0     0.093333           0.
      3358.0     0.095734           0.
      3360.0     0.098326           0.
      3362.0      0.10105           0.
      3364.0      0.10365           0.
      3366.0      0.10635           0.
      3368.0      0.10925           0.
      3370.0      0.11215           0.
      3372.0      0.11515           0.
      3374.0      0.11795           0.
      3376.0      0.12076           0.
      3378.0      0.12376           0.
      3380.0      0.12686           0.
      3382.0      0.13006           0.
      3384.0      0.13336           0.
      3386.0      0.13646           0.
      3388.0      0.13976           0.
      3390.0      0.14307           0.
      3392.0      0.14627           0.
      3394.0      0.14957           0.
      3396.0      0.15217           0.
      3398.0      0.15327           0.
      3400.0      0.16007           0.
      3402.0      0.16338           0.
      3404.0      0.16688           0.
      3406.0      0.17058           0.
      3408.0      0.17428           0.
      3410.0      0.17788           0.
      3412.0      0.18158           0.
      3414.0      0.18519           0.
      3416.0      0.18899           0.
      3418.0      0.19279           0.
      3420.0      0.19659           0.
      3422.0      0.20019           0.
      3424.0      0.20389           0.
      3426.0       0.2077           0.
      3428.0       0.2115           0.
      3430.0       0.2151           0.
      3432.0       0.2187           0.
      3434.0       0.2223           0.
      3436.0       0.2259           0.
      3438.0      0.22951           0.
      3440.0      0.23301           0.
      3442.0      0.23661           0.
      3444.0      0.24021           0.
      3446.0      0.24381           0.
      3448.0      0.24731           0.
      3450.0      0.25082           0.
      3452.0      0.25422           0.
      3454.0      0.25742           0.
      3456.0      0.26062           0.
      3458.0      0.26372           0.
      3460.0      0.26672           0.
      3462.0      0.26962           0.
      3464.0      0.27263           0.
      3466.0      0.27553           0.
      3468.0      0.27843           0.
      3470.0      0.28133           0.
      3472.0      0.28423           0.
      3474.0      0.28703           0.
      3476.0      0.28963           0.
      3478.0      0.29214           0.
      3480.0      0.29464           0.
      3482.0      0.29704           0.
      3484.0      0.29954           0.
      3486.0      0.30204           0.
      3488.0      0.30454           0.
      3490.0      0.30684           0.
      3492.0      0.30904           0.
      3494.0      0.31134           0.
      3496.0      0.31355           0.
      3498.0      0.31585           0.
      3500.0      0.31805           0.
      3502.0      0.32025           0.
      3504.0      0.32225           0.
      3506.0      0.32425           0.
      3508.0      0.32635           0.
      3510.0      0.32835           0.
      3512.0      0.33035           0.
      3514.0      0.33235           0.
      3516.0      0.33425           0.
      3518.0      0.33616           0.
      3520.0      0.33836           0.
      3522.0      0.34056           0.
      3524.0      0.34266           0.
      3526.0      0.34486           0.
      3528.0      0.34696           0.
      3530.0      0.34886           0.
      3532.0      0.35096           0.
      3534.0      0.35296           0.
      3536.0      0.35506           0.
      3538.0      0.35717           0.
      3540.0      0.35927           0.
      3542.0      0.36147           0.
      3544.0      0.36377           0.
      3546.0      0.36587           0.
      3548.0      0.36797           0.
      3550.0      0.37007           0.
      3552.0      0.37237           0.
      3554.0      0.37457           0.
      3556.0      0.37687           0.
      3558.0      0.37918           0.
      3560.0      0.38158           0.
      3562.0      0.38408           0.
      3564.0      0.38638           0.
      3566.0      0.38868           0.
      3568.0      0.39098           0.
      3570.0      0.39358           0.
      3572.0      0.39618           0.
      3574.0      0.39858           0.
      3576.0      0.40129           0.
      3578.0      0.40409           0.
      3580.0      0.40679           0.
      3582.0      0.40919           0.
      3584.0      0.41159           0.
      3586.0      0.41419           0.
      3588.0      0.41669           0.
      3590.0      0.41929           0.
      3592.0        0.422           0.
      3594.0       0.4247           0.
      3596.0       0.4272           0.
      3598.0       0.4297           0.
      3600.0       0.4322           0.
      3602.0       0.4348           0.
      3604.0       0.4374           0.
      3606.0         0.44           0.
      3608.0      0.44251           0.
      3610.0      0.44511           0.
      3612.0      0.44791           0.
      3614.0      0.45071           0.
      3616.0      0.45331           0.
      3618.0      0.45561           0.
      3620.0      0.45801           0.
      3622.0      0.46051           0.
      3624.0      0.46291           0.
      3626.0      0.46532           0.
      3628.0      0.46762           0.
      3630.0      0.47012           0.
      3632.0      0.47232           0.
      3634.0      0.47452           0.
      3636.0      0.47682           0.
      3638.0      0.47902           0.
      3640.0      0.48112           0.
      3642.0      0.48302           0.
      3644.0      0.48492           0.
      3646.0      0.48683           0.
      3648.0      0.48873           0.
      3650.0      0.49063           0.
      3652.0      0.49253           0.
      3654.0      0.49433           0.
      3656.0      0.49583           0.
      3658.0      0.49753           0.
      3660.0      0.49923           0.
      3662.0      0.50093           0.
      3664.0      0.50253           0.
      3666.0      0.50403           0.
      3668.0      0.50533           0.
      3670.0      0.50673           0.
      3672.0      0.50814           0.
      3674.0      0.50954           0.
      3676.0      0.51094           0.
      3678.0      0.51234           0.
      3680.0      0.51374           0.
      3682.0      0.51494           0.
      3684.0      0.51614           0.
      3686.0      0.51714           0.
      3688.0      0.51804           0.
      3690.0      0.51914           0.
      3692.0      0.52014           0.
      3694.0      0.52094           0.
      3696.0      0.52194           0.
      3698.0      0.52304           0.
      3700.0      0.52424           0.
      3702.0      0.52524           0.
      3704.0      0.52614           0.
      3706.0      0.52694           0.
      3708.0      0.52794           0.
      3710.0      0.52895           0.
      3712.0      0.52985           0.
      3714.0      0.53085           0.
      3716.0      0.53175           0.
      3718.0      0.53245           0.
      3720.0      0.53335           0.
      3722.0      0.53425           0.
      3724.0      0.53495           0.
      3726.0      0.53585           0.
      3728.0      0.53675           0.
      3730.0      0.53765           0.
      3732.0      0.53845           0.
      3734.0      0.53935           0.
      3736.0      0.54015           0.
      3738.0      0.54105           0.
      3740.0      0.54205           0.
      3742.0      0.54305           0.
      3744.0      0.54405           0.
      3746.0      0.54515           0.
      3748.0      0.54605           0.
      3750.0      0.54695           0.
      3752.0      0.54795           0.
      3754.0      0.54915           0.
      3756.0      0.55026           0.
      3758.0      0.55126           0.
      3760.0      0.55236           0.
      3762.0      0.55336           0.
      3764.0      0.55446           0.
      3766.0      0.55556           0.
      3768.0      0.55646           0.
      3770.0      0.55756           0.
      3772.0      0.55876           0.
      3774.0      0.55996           0.
      3776.0      0.56116           0.
      3778.0      0.56236           0.
      3780.0      0.56366           0.
      3782.0      0.56496           0.
      3784.0      0.56596           0.
      3786.0      0.56726           0.
      3788.0      0.56846           0.
      3790.0      0.56966           0.
      3792.0      0.57086           0.
      3794.0      0.57237           0.
      3796.0      0.57387           0.
      3798.0      0.57517           0.
      3800.0      0.57647           0.
      3802.0      0.57767           0.
      3804.0      0.57897           0.
      3806.0      0.58037           0.
      3808.0      0.58177           0.
      3810.0      0.58297           0.
      3812.0      0.58427           0.
      3814.0      0.58547           0.
      3816.0      0.58657           0.
      3818.0      0.58797           0.
      3820.0      0.58947           0.
      3822.0      0.59087           0.
      3824.0      0.59217           0.
      3826.0      0.59347           0.
      3828.0      0.59498           0.
      3830.0      0.59628           0.
      3832.0      0.59758           0.
      3834.0      0.59888           0.
      3836.0      0.60008           0.
      3838.0      0.60138           0.
      3840.0      0.60258           0.
      3842.0      0.60358           0.
      3844.0      0.60478           0.
      3846.0      0.60618           0.
      3848.0      0.60738           0.
      3850.0      0.60858           0.
      3852.0      0.60978           0.
      3854.0      0.61088           0.
      3856.0      0.61198           0.
      3858.0      0.61338           0.
      3860.0      0.61498           0.
      3862.0      0.61629           0.
      3864.0      0.61749           0.
      3866.0      0.61859           0.
      3868.0      0.61969           0.
      3870.0      0.62079           0.
      3872.0      0.62179           0.
      3874.0      0.62279           0.
      3876.0      0.62389           0.
      3878.0      0.62489           0.
      3880.0      0.62569           0.
      3882.0      0.62669           0.
      3884.0      0.62769           0.
      3886.0      0.62869           0.
      3888.0      0.62969           0.
      3890.0      0.63059           0.
      3892.0      0.63159           0.
      3894.0      0.63249           0.
      3896.0      0.63319           0.
      3898.0      0.63389           0.
      3900.0      0.63489           0.
      3902.0      0.63569           0.
      3904.0      0.63659           0.
      3906.0       0.6375           0.
      3908.0       0.6382           0.
      3910.0       0.6388           0.
      3912.0       0.6393           0.
      3914.0       0.6399           0.
      3916.0       0.6407           0.
      3918.0       0.6415           0.
      3920.0        0.642           0.
      3922.0       0.6424           0.
      3924.0       0.6429           0.
      3926.0       0.6435           0.
      3928.0        0.644           0.
      3930.0       0.6444           0.
      3932.0        0.645           0.
      3934.0       0.6457           0.
      3936.0        0.646           0.
      3938.0       0.6463           0.
      3940.0       0.6467           0.
      3942.0       0.6471           0.
      3944.0       0.6474           0.
      3946.0       0.6476           0.
      3948.0       0.6478           0.
      3950.0       0.6481           0.
      3952.0       0.6485           0.
      3954.0       0.6489           0.
      3956.0       0.6492           0.
      3958.0       0.6494           0.
      3960.0       0.6496           0.
      3962.0       0.6499           0.
      3964.0         0.65           0.
      3966.0         0.65           0.
      3968.0         0.65           0.
      3970.0         0.65           0.
      3972.0         0.65           0.
      3974.0       0.6501           0.
      3976.0       0.6503           0.
      3978.0       0.6504           0.
      3980.0       0.6504           0.
      3982.0       0.6504           0.
      3984.0       0.6503           0.
      3986.0       0.6502           0.
      3988.0       0.6503           0.
      3990.0       0.6501           0.
      3992.0       0.6498           0.
      3994.0       0.6496           0.
      3996.0       0.6495           0.
      3998.0       0.6495           0.
      4000.0       0.6494           0.
      4002.0       0.6491           0.
      4004.0       0.6489           0.
      4006.0       0.6489           0.
      4008.0       0.6488           0.
      4010.0       0.6485           0.
      4012.0       0.6483           0.
      4014.0       0.6481           0.
      4016.0       0.6479           0.
      4018.0       0.6477           0.
      4020.0       0.6474           0.
      4022.0       0.6471           0.
      4024.0       0.6467           0.
      4026.0       0.6462           0.
      4028.0       0.6458           0.
      4030.0       0.6455           0.
      4032.0       0.6452           0.
      4034.0        0.645           0.
      4036.0       0.6449           0.
      4038.0       0.6445           0.
      4040.0       0.6441           0.
      4042.0        0.644           0.
      4044.0       0.6439           0.
      4046.0       0.6437           0.
      4048.0       0.6435           0.
      4050.0       0.6434           0.
      4052.0       0.6432           0.
      4054.0        0.643           0.
      4056.0       0.6427           0.
      4058.0       0.6425           0.
      4060.0       0.6421           0.
      4062.0       0.6418           0.
      4064.0       0.6416           0.
      4066.0       0.6414           0.
      4068.0       0.6412           0.
      4070.0        0.641           0.
      4072.0       0.6409           0.
      4074.0       0.6409           0.
      4076.0       0.6408           0.
      4078.0       0.6405           0.
      4080.0       0.6403           0.
      4082.0       0.6401           0.
      4084.0       0.6396           0.
      4086.0       0.6393           0.
      4088.0       0.6391           0.
      4090.0       0.6389           0.
      4092.0       0.6388           0.
      4094.0       0.6388           0.
      4096.0       0.6387           0.
      4098.0       0.6384           0.
      4100.0        0.638           0.
      4102.0       0.6377           0.
      4104.0       0.6375           0.
      4106.0       0.6374           0.
      4108.0       0.6373           0.
      4110.0       0.6371           0.
      4112.0       0.6369           0.
      4114.0      0.63649           0.
      4116.0      0.63609           0.
      4118.0      0.63579           0.
      4120.0      0.63559           0.
      4122.0      0.63529           0.
      4124.0      0.63499           0.
      4126.0      0.63459           0.
      4128.0      0.63409           0.
      4130.0      0.63379           0.
      4132.0      0.63359           0.
      4134.0      0.63319           0.
      4136.0      0.63269           0.
      4138.0      0.63229           0.
      4140.0      0.63219           0.
      4142.0      0.63189           0.
      4144.0      0.63149           0.
      4146.0      0.63109           0.
      4148.0      0.63089           0.
      4150.0      0.63049           0.
      4152.0      0.63009           0.
      4154.0      0.62969           0.
      4156.0      0.62909           0.
      4158.0      0.62869           0.
      4160.0      0.62829           0.
      4162.0      0.62779           0.
      4164.0      0.62709           0.
      4166.0      0.62659           0.
      4168.0      0.62589           0.
      4170.0      0.62519           0.
      4172.0      0.62459           0.
      4174.0      0.62409           0.
      4176.0      0.62349           0.
      4178.0      0.62279           0.
      4180.0      0.62199           0.
      4182.0      0.62109           0.
      4184.0      0.62029           0.
      4186.0      0.61939           0.
      4188.0      0.61829           0.
      4190.0      0.61729           0.
      4192.0      0.61629           0.
      4194.0      0.61519           0.
      4196.0      0.61418           0.
      4198.0      0.61278           0.
      4200.0      0.61148           0.
      4202.0      0.61008           0.
      4204.0      0.60868           0.
      4206.0      0.60718           0.
      4208.0      0.60568           0.
      4210.0      0.60408           0.
      4212.0      0.60258           0.
      4214.0      0.60088           0.
      4216.0      0.59918           0.
      4218.0      0.59748           0.
      4220.0      0.59558           0.
      4222.0      0.59357           0.
      4224.0      0.59147           0.
      4226.0      0.58957           0.
      4228.0      0.58747           0.
      4230.0      0.58547           0.
      4232.0      0.58327           0.
      4234.0      0.58097           0.
      4236.0      0.57857           0.
      4238.0      0.57637           0.
      4240.0      0.57427           0.
      4242.0      0.57217           0.
      4244.0      0.56996           0.
      4246.0      0.56756           0.
      4248.0      0.56536           0.
      4250.0      0.56296           0.
      4252.0      0.56066           0.
      4254.0      0.55826           0.
      4256.0      0.55596           0.
      4258.0      0.55366           0.
      4260.0      0.55156           0.
      4262.0      0.54935           0.
      4264.0      0.54745           0.
      4266.0      0.54545           0.
      4268.0      0.54345           0.
      4270.0      0.54145           0.
      4272.0      0.53965           0.
      4274.0      0.53785           0.
      4276.0      0.53615           0.
      4278.0      0.53435           0.
      4280.0      0.53275           0.
      4282.0      0.53105           0.
      4284.0      0.52935           0.
      4286.0      0.52764           0.
      4288.0      0.52584           0.
      4290.0      0.52424           0.
      4292.0      0.52284           0.
      4294.0      0.52164           0.
      4296.0      0.52024           0.
      4298.0      0.51904           0.
      4300.0      0.51784           0.
      4302.0      0.51654           0.
      4304.0      0.51534           0.
      4306.0      0.51414           0.
      4308.0      0.51314           0.
      4310.0      0.51214           0.
      4312.0      0.51124           0.
      4314.0      0.51044           0.
      4316.0      0.50974           0.
      4318.0      0.50904           0.
      4320.0      0.50834           0.
      4322.0      0.50774           0.
      4324.0      0.50713           0.
      4326.0      0.50663           0.
      4328.0      0.50613           0.
      4330.0      0.50583           0.
      4332.0      0.50563           0.
      4334.0      0.50533           0.
      4336.0      0.50533           0.
      4338.0      0.50523           0.
      4340.0      0.50533           0.
      4342.0      0.50533           0.
      4344.0      0.50543           0.
      4346.0      0.50553           0.
      4348.0      0.50563           0.
      4350.0      0.50583           0.
      4352.0      0.50613           0.
      4354.0      0.50643           0.
      4356.0      0.50673           0.
      4358.0      0.50703           0.
      4360.0      0.50734           0.
      4362.0      0.50774           0.
      4364.0      0.50814           0.
      4366.0      0.50834           0.
      4368.0      0.50854           0.
      4370.0      0.50864           0.
      4372.0      0.50874           0.
      4374.0      0.50854           0.
      4376.0      0.50834           0.
      4378.0      0.50824           0.
      4380.0      0.50794           0.
      4382.0      0.50734           0.
      4384.0      0.50663           0.
      4386.0      0.50573           0.
      4388.0      0.50443           0.
      4390.0      0.50313           0.
      4392.0      0.50153           0.
      4394.0      0.49963           0.
      4396.0      0.49733           0.
      4398.0      0.49483           0.
      4400.0      0.49203           0.
      4402.0      0.48893           0.
      4404.0      0.48522           0.
      4406.0      0.48132           0.
      4408.0      0.47702           0.
      4410.0      0.47222           0.
      4412.0      0.46712           0.
      4414.0      0.46171           0.
      4416.0      0.45581           0.
      4418.0      0.44951           0.
      4420.0      0.44291           0.
      4422.0       0.4356           0.
      4424.0        0.428           0.
      4426.0      0.42009           0.
      4428.0      0.41189           0.
      4430.0      0.40339           0.
      4432.0      0.39458           0.
      4434.0      0.38558           0.
      4436.0      0.37627           0.
      4438.0      0.36667           0.
      4440.0      0.35697           0.
      4442.0      0.34706           0.
      4444.0      0.33716           0.
      4446.0      0.32725           0.
      4448.0      0.31725           0.
      4450.0      0.30734           0.
      4452.0      0.29734           0.
      4454.0      0.28733           0.
      4456.0      0.27753           0.
      4458.0      0.26772           0.
      4460.0      0.25802           0.
      4462.0      0.24842           0.
      4464.0      0.23911           0.
      4466.0      0.22991           0.
      4468.0       0.2209           0.
      4470.0       0.2122           0.
      4472.0      0.20379           0.
      4474.0      0.19549           0.
      4476.0      0.18749           0.
      4478.0      0.17978           0.
      4480.0      0.17228           0.
      4482.0      0.16508           0.
      4484.0      0.15817           0.
      4486.0      0.15137           0.
      4488.0      0.14477           0.
      4490.0      0.13856           0.
      4492.0      0.13256           0.
      4494.0      0.12686           0.
      4496.0      0.12136           0.
      4498.0      0.11605           0.
      4500.0      0.11105           0.
      4502.0      0.10615           0.
      4504.0      0.10155           0.
      4506.0     0.097165           0.
      4508.0     0.093033           0.
      4510.0     0.089041           0.
      4512.0      0.08528           0.
      4514.0     0.081658           0.
      4516.0     0.078196           0.
      4518.0     0.074905           0.
      4520.0     0.071753           0.
      4522.0     0.068702           0.
      4524.0     0.065851           0.
      4526.0     0.063129           0.
      4528.0     0.060498           0.
      4530.0     0.057957           0.
      4532.0     0.055586           0.
      4534.0     0.053345           0.
      4536.0     0.051214           0.
      4538.0     0.049133           0.
      4540.0     0.047162           0.
      4542.0     0.045261           0.
      4544.0      0.04349           0.
      4546.0     0.041809           0.
      4548.0     0.040149           0.
      4550.0     0.038558           0.
      4552.0     0.037017           0.
      4554.0     0.035586           0.
      4556.0     0.034246           0.
      4558.0     0.032925           0.
      4580.0     0.024751           0.
      4590.0     0.020389           0.
      4600.0     0.017258           0.
      4610.0     0.014337           0.
      4620.0     0.012216           0.
      4630.0     0.010195           0.
      4640.0     0.008717           0.
      4650.0    0.0073014           0.
      4660.0    0.0062529           0.
      4670.0    0.0052464           0.
      4680.0    0.0044951           0.
      4690.0    0.0037657           0.
      4700.0    0.0032225           0.
      4710.0    0.0027023           0.
      4720.0    0.0023171           0.
      4730.0    0.0019499           0.
      4740.0    0.0016768           0.
      4750.0    0.0014117           0.
      4760.0    0.0012136           0.
      4770.0    0.0010225           0.
      4780.0    8.7881E-4           0.
      4790.0    7.3844E-4           0.
      4800.0    6.3249E-4           0.
      4810.0    5.3015E-4           0.
      4820.0    4.5341E-4           0.
      4830.0    3.7898E-4           0.
      4840.0    3.2435E-4           0.
      4850.0    2.7083E-4           0.
      4860.0    2.3141E-4           0.
      4870.0    1.9389E-4           0.
      4880.0    1.6608E-4           0.
      4890.0    1.3936E-4           0.
      4900.0    1.1936E-4           0.
      4910.0    1.0095E-4           0.
      4920.0    8.7230E-5           0.
      4930.0    7.4164E-5           0.
      4940.0    6.4760E-5           0.
      4950.0    5.5846E-5           0.
      4960.0    4.9103E-5           0.
      4970.0    4.2620E-5           0.
      4980.0    3.7597E-5           0.
      4990.0    3.2565E-5           0.
      5000.0    2.8573E-5           0.
      5010.0    2.4561E-5           0.
      5020.0    2.1190E-5           0.
      5030.0    1.7648E-5           0.
      5040.0    1.4827E-5           0.
      5050.0    1.2316E-5           0.
      5060.0    1.0245E-5           0.
      5070.0    8.2678E-6           0.
      5080.0    6.9682E-6           0.
      5090.0    5.6086E-6           0.
      5100.0    4.8593E-6           0.
      5110.0    3.9148E-6           0.
      5120.0    3.3586E-6           0.
      5130.0    2.8263E-6           0.
      5140.0    2.4902E-6           0.
      5150.0    2.1490E-6           0.
      5160.0    1.8919E-6           0.
      5170.0    1.6258E-6           0.
      5180.0    1.3846E-6           0.
      5190.0    1.1645E-6           0.
      5200.0    1.0605E-6           0.
      5210.0    9.0192E-7           0.
      5220.0    8.8221E-7           0.
      5230.0    7.8817E-7           0.
      5240.0    7.5315E-7           0.
      5250.0    6.9212E-7           0.
      5260.0    6.5310E-7           0.
      5270.0    6.3019E-7           0.
      5280.0    5.6296E-7           0.
      5290.0    4.3170E-7           0.
      5300.0    5.0693E-7           0.
      5310.0    4.5961E-7           0.
      5320.0    4.6071E-7           0.
      5330.0    4.6351E-7           0.
      5340.0    5.3395E-7           0.
      5350.0    5.3985E-7           0.
      5360.0    5.3415E-7           0.
      5370.0    4.9203E-7           0.
      5380.0    4.8292E-7           0.
      5390.0    4.9823E-7           0.
      5400.0    5.4885E-7           0.
      5410.0    4.8442E-7           0.
      5420.0    5.3865E-7           0.
      5430.0    5.1684E-7           0.
      5440.0    5.4125E-7           0.
      5450.0    5.0864E-7           0.
      5460.0    5.3395E-7           0.
      5470.0    6.0128E-7           0.
      5480.0    6.4060E-7           0.
      5490.0    7.3244E-7           0.
      5500.0    8.8941E-7           0.
      5510.0    9.6825E-7           0.
      5520.0    1.2756E-6           0.
      5530.0    1.5377E-6           0.
      5540.0    1.9829E-6           0.
      5550.0    2.5522E-6           0.
      5560.0    3.2125E-6           0.
      5570.0    4.1929E-6           0.
      5580.0    5.1224E-6           0.
      5590.0    6.3619E-6           0.
      5600.0    7.4665E-6           0.
      5610.0    8.8211E-6           0.
      5620.0    9.6735E-6           0.
      5630.0    1.0635E-5           0.
      5640.0    1.0925E-5           0.
      5650.0    1.0835E-5           0.
      5660.0    1.0395E-5           0.
      5670.0    9.3603E-6           0.
      5680.0    8.1228E-6           0.
      5690.0    6.8702E-6           0.
      5700.0    5.1874E-6           0.
      5710.0    4.0499E-6           0.
      5720.0    3.0694E-6           0.
      5730.0    2.2080E-6           0.
      5740.0    1.7138E-6           0.
      5750.0    1.2636E-6           0.
      5760.0    9.8446E-7           0.
      5770.0    7.9377E-7           0.
      5780.0    6.7141E-7           0.
      5790.0    5.9688E-7           0.
      5800.0    5.0613E-7           0.
      5810.0    4.6942E-7           0.
      5820.0    4.9293E-7           0.
      5830.0    4.5771E-7           0.
      5840.0    4.2480E-7           0.
      5850.0    4.1949E-7           0.
      5860.0    4.6131E-7           0.
      5870.0    4.2390E-7           0.
      5880.0    4.5971E-7           0.
      5890.0    4.4431E-7           0.
      5900.0    4.3300E-7           0.
      5910.0    4.4421E-7           0.
      5920.0    4.4601E-7           0.
      5930.0    4.0359E-7           0.
      5940.0    4.6552E-7           0.
      5950.0    4.2160E-7           0.
      5960.0    4.5921E-7           0.
      5970.0    4.3310E-7           0.
      5980.0    4.4431E-7           0.
      5990.0    4.6131E-7           0.
      6000.0    4.2480E-7           0.
      6010.0    4.7622E-7           0.
      6020.0    4.5481E-7           0.
      6030.0    4.2820E-7           0.
      6040.0    4.3050E-7           0.
      6050.0    4.6071E-7           0.
      6060.0    4.3140E-7           0.
      6070.0    4.8833E-7           0.
      6080.0    4.5081E-7           0.
      6090.0    4.4501E-7           0.
      6100.0    4.4911E-7           0.
      6110.0    4.0109E-7           0.
      6120.0    4.6842E-7           0.
      6130.0    4.1109E-7           0.
      6140.0    4.4120E-7           0.
      6150.0    4.8282E-7           0.
      6160.0    4.7452E-7           0.
      6170.0    4.4220E-7           0.
      6180.0    4.5671E-7           0.
      6190.0    4.2230E-7           0.
      6200.0    4.5791E-7           0.
      6210.0    4.3930E-7           0.
      6220.0    4.2140E-7           0.
      6230.0    4.4311E-7           0.
      6240.0    4.1259E-7           0.
      6250.0    4.1389E-7           0.
      6260.0    4.6562E-7           0.
      6270.0    4.2700E-7           0.
      6280.0    4.6351E-7           0.
      6290.0    4.9513E-7           0.
      6300.0    4.4971E-7           0.
      6310.0    4.0649E-7           0.
      6320.0    4.4271E-7           0.
      6330.0    4.3870E-7           0.
      6340.0    4.5311E-7           0.
      6350.0    4.7012E-7           0.
      6360.0    4.6221E-7           0.
      6370.0    4.8062E-7           0.
      6380.0    4.8973E-7           0.
      6390.0    4.8072E-7           0.
      6400.0    4.7172E-7           0.
      6410.0    4.3730E-7           0.
      6420.0    4.5541E-7           0.
      6430.0    4.7242E-7           0.
      6440.0    4.3200E-7           0.
      6450.0    4.7022E-7           0.
      6460.0    4.6682E-7           0.
      6470.0    4.3660E-7           0.
      6480.0    3.9238E-7           0.
      6490.0    4.4541E-7           0.
      6500.0    4.2160E-7           0.
      6510.0    4.1529E-7           0.
      6520.0    4.2600E-7           0.
      6530.0    4.0799E-7           0.
      6540.0    4.1789E-7           0.
      6550.0    4.4601E-7           0.
      6560.0    4.1069E-7           0.
      6570.0    4.3350E-7           0.
      6580.0    4.4631E-7           0.
      6590.0    4.4240E-7           0.
      6600.0    4.0939E-7           0.
      6610.0    4.1569E-7           0.
      6620.0    4.4601E-7           0.
      6630.0    4.4801E-7           0.
      6640.0    4.3550E-7           0.
      6650.0    4.5171E-7           0.
      6660.0    4.4851E-7           0.
      6670.0    4.4030E-7           0.
      6680.0    4.6582E-7           0.
      6690.0    4.1559E-7           0.
      6700.0    4.2210E-7           0.
      6710.0    4.0979E-7           0.
      6720.0    4.0979E-7           0.
      6730.0    4.5731E-7           0.
      6740.0    4.4741E-7           0.
      6750.0    4.9733E-7           0.
      6760.0    5.1334E-7           0.
      6770.0    5.7647E-7           0.
      6780.0    6.0758E-7           0.
      6790.0    7.3804E-7           0.
      6800.0    8.0757E-7           0.
      6810.0    9.4144E-7           0.
      6820.0    1.0895E-6           0.
      6830.0    1.3326E-6           0.
      6840.0    1.6248E-6           0.
      6850.0    1.8899E-6           0.
      6860.0    2.2660E-6           0.
      6870.0    2.6382E-6           0.
      6880.0    3.1595E-6           0.
      6890.0    3.5757E-6           0.
      6900.0    4.2540E-6           0.
      6910.0    4.8282E-6           0.
      6920.0    5.3825E-6           0.
      6930.0    5.9237E-6           0.
      6940.0    6.5180E-6           0.
      6950.0    6.9502E-6           0.
      6960.0    7.3464E-6           0.
      6970.0    7.6575E-6           0.
      6980.0    7.9437E-6           0.
      6990.0    8.1598E-6           0.
      7000.0    8.1508E-6           0.
      7010.0    8.1098E-6           0.
      7020.0    8.1078E-6           0.
      7030.0    7.9017E-6           0.
      7040.0    7.6926E-6           0.
      7050.0    7.3564E-6           0.
      7060.0    7.0303E-6           0.
      7070.0    6.7761E-6           0.
      7080.0    6.3940E-6           0.
      7090.0    6.0088E-6           0.
      7100.0    5.6216E-6           0.
      7110.0    5.2554E-6           0.
      7120.0    4.8583E-6           0.
      7130.0    4.4631E-6           0.
      7140.0    4.1779E-6           0.
      7150.0    3.8078E-6           0.
      7160.0    3.4896E-6           0.
      7170.0    3.2355E-6           0.
      7180.0    3.0024E-6           0.
      7190.0    2.6852E-6           0.
      7200.0    2.4551E-6           0.
      7210.0    2.2771E-6           0.
      7220.0    2.1250E-6           0.
      7230.0    1.9719E-6           0.
      7240.0    1.8038E-6           0.
      7250.0    1.6638E-6           0.
      7260.0    1.5587E-6           0.
      7270.0    1.4597E-6           0.
      7280.0    1.2996E-6           0.
      7290.0    1.3096E-6           0.
      7300.0    1.1605E-6           0.
      7310.0    1.0915E-6           0.
      7320.0    9.6955E-7           0.
      7330.0    9.1682E-7           0.
      7340.0    8.7921E-7           0.
      7350.0    8.6900E-7           0.
      7360.0    8.4719E-7           0.
      7370.0    7.9117E-7           0.
      7380.0    7.3034E-7           0.
      7390.0    7.0983E-7           0.
      7400.0    6.8422E-7           0.
      7410.0    6.9792E-7           0.
      7420.0    6.3860E-7           0.
      7430.0    6.1288E-7           0.
      7440.0    5.9718E-7           0.
      7450.0    6.2859E-7           0.
      7460.0    5.7136E-7           0.
      7470.0    5.4975E-7           0.
      7480.0    4.6311E-7           0.
      7490.0    5.2034E-7           0.
      7500.0    5.0643E-7           0.
      7510.0    4.6291E-7           0.
      7520.0    4.9863E-7           0.
      7530.0    4.7322E-7           0.
      7540.0    4.7762E-7           0.
      7550.0    4.7672E-7           0.
      7560.0    4.0039E-7           0.
      7570.0    4.5941E-7           0.
      7580.0    4.1649E-7           0.
      7590.0    4.6932E-7           0.
      7600.0    4.2270E-7           0.
      7610.0    3.7978E-7           0.
      7620.0    4.3080E-7           0.
      7630.0    4.1079E-7           0.
      7640.0    3.7627E-7           0.
      7650.0    4.1799E-7           0.
      7660.0    3.9618E-7           0.
      7670.0    4.3000E-7           0.
      7680.0    4.1299E-7           0.
      7690.0    4.0689E-7           0.
      7700.0    3.9358E-7           0.
      7710.0    4.1089E-7           0.
      7720.0    4.0319E-7           0.
      7730.0    4.3040E-7           0.
      7740.0    4.6081E-7           0.
      7750.0    4.0269E-7           0.
      7760.0    3.9318E-7           0.
      7770.0    4.0299E-7           0.
      7780.0    4.1149E-7           0.
      7790.0    4.3500E-7           0.
      7800.0    3.5196E-7           0.
      7810.0    3.5436E-7           0.
      7820.0    3.8428E-7           0.
      7830.0    3.8398E-7           0.
      7840.0    3.9908E-7           0.
      7850.0    4.1579E-7           0.
      7860.0    3.8428E-7           0.
      7870.0    3.7307E-7           0.
      7880.0    3.8488E-7           0.
      7890.0    4.2140E-7           0.
      7900.0    4.0509E-7           0.
      7910.0    3.7647E-7           0.
      7920.0    4.8142E-7           0.
      7930.0    4.2150E-7           0.
      7940.0    4.1789E-7           0.
      7950.0    4.3130E-7           0.
      7960.0    4.2800E-7           0.
      7970.0    4.4341E-7           0.
      7980.0    4.4200E-7           0.
      7990.0    4.7842E-7           0.
      8000.0    7.2143E-7           0.
      8010.0    3.1635E-7           0.
      8020.0    4.8683E-7           0.
      8030.0    3.1635E-7           0.
      8040.0    3.1635E-7           0.
      8050.0    3.1635E-7           0.
      8060.0    3.1635E-7           0.
      8070.0    3.1635E-7           0.
      8080.0    5.3405E-7           0.
      8090.0    3.1635E-7           0.
      8100.0    3.1635E-7           0.
      8110.0    3.7527E-7           0.
      8120.0    3.7477E-7           0.
      8130.0    3.1635E-7           0.
      8140.0    3.4606E-7           0.
      8150.0    3.1635E-7           0.
      8160.0    3.1635E-7           0.
      8170.0    3.2405E-7           0.
      8180.0    3.8498E-7           0.
      8190.0    3.1635E-7           0.
      8200.0    3.1635E-7           0.
      8210.0    3.7717E-7           0.
      8220.0    3.2415E-7           0.
      8230.0    8.5720E-7           0.
      8240.0    3.1635E-7           0.
      8250.0    3.1635E-7           0.
      8260.0    3.1635E-7           0.
      8270.0    3.1635E-7           0.
      8280.0    3.1635E-7           0.
      8290.0    3.1635E-7           0.
      8300.0    3.5376E-7           0.
      8310.0    3.1635E-7           0.
      8320.0    3.1635E-7           0.
      8330.0    1.1285E-6           0.
      8340.0    3.1635E-7           0.
      8350.0    3.2385E-7           0.
      8360.0    3.1635E-7           0.
      8370.0    3.3836E-7           0.
      8380.0    3.1635E-7           0.
      8390.0    3.1635E-7           0.
      8400.0    3.1635E-7           0.
      8410.0    3.1635E-7           0.
      8420.0    3.8478E-7           0.
      8430.0    4.5461E-7           0.
      8440.0    3.1635E-7           0.
      8450.0    3.8458E-7           0.
      8460.0    3.1635E-7           0.
      8470.0    3.1635E-7           0.
      8480.0    3.1635E-7           0.
      8490.0    3.5256E-7           0.
      8500.0    3.1635E-7           0.
      8510.0    3.1635E-7           0.
      8520.0    3.1635E-7           0.
      8530.0    3.1635E-7           0.
      8540.0    3.1635E-7           0.
      8550.0    3.1635E-7           0.
      8560.0    3.5086E-7           0.
      8570.0    3.2355E-7           0.
      8580.0    3.5256E-7           0.
      8590.0    3.1635E-7           0.
      8600.0    3.1635E-7           0.
      8610.0    3.8428E-7           0.
      8620.0    3.9198E-7           0.
      8630.0    3.1635E-7           0.
      8640.0    3.9818E-7           0.
      8650.0    3.1635E-7           0.
      8660.0    8.5149E-7           0.
      8670.0    3.1635E-7           0.
      8680.0    3.1635E-7           0.
      8690.0    3.1635E-7           0.
      8700.0    3.1635E-7           0.
      8710.0    4.1149E-7           0.
      8720.0    3.7157E-7           0.
      8730.0    3.1635E-7           0.
      8740.0    3.1635E-7           0.
      8750.0    3.1635E-7           0.
      8760.0    3.2355E-7           0.
      8770.0    3.1635E-7           0.
      8780.0    3.1635E-7           0.
      8790.0    3.1635E-7           0.
      8800.0    3.1635E-7           0.
      8810.0    3.1635E-7           0.
      8820.0    3.1635E-7           0.
      8830.0    3.5647E-7           0.
      8840.0    3.1635E-7           0.
      8850.0    4.1179E-7           0.
      8860.0    9.3513E-7           0.
      8870.0    3.5296E-7           0.
      8880.0    3.1635E-7           0.
      8890.0    3.1635E-7           0.
      8900.0    4.0119E-7           0.
      8910.0    3.1635E-7           0.
      8920.0    3.1635E-7           0.
      8930.0    3.1635E-7           0.
      8940.0    3.2595E-7           0.
      8950.0    3.1635E-7           0.
      8960.0    3.2385E-7           0.
      8970.0    3.1635E-7           0.
      8980.0    3.1635E-7           0.
      8990.0    3.1635E-7           0.
      9000.0    3.5286E-7           0.
      9010.0    4.3140E-7           0.
      9020.0    1.2476E-6           0.
      9030.0    8.0537E-7           0.
      9040.0    3.2325E-7           0.
      9050.0    3.5236E-7           0.
      9060.0    3.1635E-7           0.
      9070.0    3.1635E-7           0.
      9080.0    4.5571E-7           0.
      9090.0    3.1635E-7           0.
      9100.0    3.8838E-7           0.
      9110.0    7.8736E-7           0.
      9120.0    4.9323E-7           0.
      9130.0    3.2335E-7           0.
      9140.0    3.1635E-7           0.
      9150.0    3.1635E-7           0.
      9160.0    3.5737E-7           0.
      9170.0    3.1635E-7           0.
      9180.0    3.1635E-7           0.
      9190.0    3.1635E-7           0.
      9200.0    4.0819E-7           0.
      9210.0    3.1635E-7           0.
      9220.0    3.1635E-7           0.
      9230.0    3.1635E-7           0.
      9240.0    3.1635E-7           0.
      9250.0    3.1635E-7           0.
      9260.0    3.1635E-7           0.
      9270.0    3.1635E-7           0.
      9280.0    3.8398E-7           0.
      9290.0    3.1635E-7           0.
      9300.0    5.1604E-7           0.
      9310.0    3.5256E-7           0.
      9320.0    4.1159E-7           0.
      9330.0    3.1635E-7           0.
      9340.0    4.5461E-7           0.
      9350.0    6.1659E-7           0.
      9360.0    6.0648E-7           0.
      9370.0    5.1184E-7           0.
      9380.0    7.5315E-7           0.
      9390.0    3.1635E-7           0.
      9400.0    3.1635E-7           0.
      9410.0    3.2355E-7           0.
      9420.0    3.1635E-7           0.
      9430.0    4.0939E-7           0.
      9440.0    3.1635E-7           0.
      9450.0    3.1635E-7           0.
      9460.0    3.1635E-7           0.
      9470.0    3.1635E-7           0.
      9480.0    3.1635E-7           0.
      9490.0    3.1635E-7           0.
      9500.0    3.1635E-7           0.
      9510.0    3.1635E-7           0.
      9520.0    3.1635E-7           0.
      9530.0    3.1635E-7           0.
      9540.0    9.8826E-7           0.
      9550.0    3.2375E-7           0.
      9560.0    8.3809E-7           0.
      9570.0    3.2925E-7           0.
      9580.0    4.3690E-7           0.
      9590.0    3.1635E-7           0.
      9600.0    3.1635E-7           0.
      9610.0    3.1635E-7           0.
      9620.0    3.1635E-7           0.
      9630.0    3.1635E-7           0.
      9640.0    3.1635E-7           0.
      9650.0    3.5256E-7           0.
      9660.0    3.1635E-7           0.
      9670.0    1.1655E-6           0.
      9680.0    3.1635E-7           0.
      9690.0    3.1635E-7           0.
      9700.0    3.1635E-7           0.
      9710.0    3.1635E-7           0.
      9720.0    3.1635E-7           0.
      9730.0    3.1635E-7           0.
      9740.0    3.1635E-7           0.
      9750.0    3.1635E-7           0.
      9760.0    3.1635E-7           0.
      9770.0    3.1635E-7           0.
      9780.0    7.2894E-7           0.
      9790.0    5.1894E-7           0.
      9800.0    3.1635E-7           0.
      9810.0    7.2574E-7           0.
      9820.0    3.1635E-7           0.
      9830.0    3.1635E-7           0.
      9840.0    3.1635E-7           0.
      9850.0    3.1635E-7           0.
      9860.0    3.1635E-7           0.
      9870.0    3.1635E-7           0.
      9880.0    4.1589E-7           0.
      9890.0    3.1635E-7           0.
      9900.0    4.9713E-7           0.
      9910.0    3.1635E-7           0.
      9920.0    7.0062E-7           0.
      9930.0    3.1635E-7           0.
      9940.0    3.1635E-7           0.
      9950.0    3.1635E-7           0.
      9960.0    3.1635E-7           0.
      9970.0    3.1635E-7           0.
      9980.0    3.4426E-7           0.
      9990.0    4.9773E-7           0.
     10000.0    6.1519E-7           0.
     10010.0    5.0183E-7           0.
     10020.0    3.1635E-7           0.
     10030.0    3.1635E-7           0.
     10040.0    3.1635E-7           0.
     10050.0    3.1635E-7           0.
     10060.0    3.1635E-7           0.
     10070.0    3.1635E-7           0.
     10080.0    3.9478E-7           0.
     10090.0    3.1635E-7           0.
     10100.0    3.2305E-7           0.
     10110.0    3.2315E-7           0.
     10120.0    3.1635E-7           0.
     10130.0    3.1635E-7           0.
     10140.0    3.1635E-7           0.
     10150.0    6.6371E-7           0.
     10160.0    3.1635E-7           0.
     10170.0    4.5641E-7           0.
     10180.0    3.1635E-7           0.
     10190.0    3.5276E-7           0.
     10200.0    3.5266E-7           0.
     10210.0    4.1899E-7           0.
     10220.0    3.1635E-7           0.
     10230.0    3.1635E-7           0.
     10240.0    9.1092E-7           0.
     10250.0    3.1635E-7           0.
     10260.0    3.1635E-7           0.
     10270.0    3.1635E-7           0.
     10280.0    3.2355E-7           0.
     10290.0    3.2355E-7           0.
     10300.0    3.8268E-7           0.
     10310.0    3.1635E-7           0.
     10320.0    3.2555E-7           0.
     10330.0    3.1635E-7           0.
     10340.0    3.1635E-7           0.
     10350.0    4.7002E-7           0.
     10360.0    3.1635E-7           0.
     10370.0    3.1635E-7           0.
     10380.0    3.1635E-7           0.
     10390.0    3.5256E-7           0.
     10400.0    3.1635E-7           0.
     10410.0    4.1919E-7           0.
     10420.0    3.1635E-7           0.
     10430.0    4.1349E-7           0.
     10440.0    3.1635E-7           0.
     10450.0    3.1635E-7           0.
     10460.0    3.8468E-7           0.
     10470.0    6.2089E-7           0.
     10480.0    3.1635E-7           0.
     10490.0    3.1635E-7           0.
     10500.0    3.1635E-7           0.
     10510.0    3.1635E-7           0.
     10520.0    3.1635E-7           0.
     10530.0    3.1635E-7           0.
     10540.0    3.1635E-7           0.
     10550.0    3.1635E-7           0.
     10560.0    6.2689E-7           0.
     10570.0    3.1635E-7           0.
     10580.0    3.1635E-7           0.
     10590.0    8.2468E-7           0.
     10600.0    3.1635E-7           0.
     10610.0    3.1635E-7           0.
     10620.0    3.1635E-7           0.
     10630.0    3.1635E-7           0.
     10640.0    3.1635E-7           0.
     10650.0    3.5306E-7           0.
     10660.0    3.4186E-7           0.
     10670.0    3.1635E-7           0.
     10680.0    3.1635E-7           0.
     10690.0    3.1635E-7           0.
     10700.0    3.1635E-7           0.
     10710.0    3.1635E-7           0.
     10720.0    3.6027E-7           0.
     10730.0    3.1635E-7           0.
     10740.0    4.0949E-7           0.
     10750.0    1.8288E-6           0.
     10760.0    5.4245E-7           0.
     10770.0    3.1635E-7           0.
     10780.0    3.1635E-7           0.
     10790.0    4.9713E-7           0.
     10800.0    3.1635E-7           0.
     10810.0    3.5276E-7           0.
     10820.0    3.1635E-7           0.
     10830.0    9.9336E-7           0.
     10840.0    3.8468E-7           0.
     10850.0    3.1635E-7           0.
     10860.0    3.1635E-7           0.
     10870.0    3.1635E-7           0.
     10880.0    3.1635E-7           0.
     10890.0    7.4555E-7           0.
     10900.0    3.8158E-7           0.
     10910.0    5.5656E-7           0.
     10920.0    3.8458E-7           0.
     10930.0    3.1635E-7           0.
     10940.0    3.1635E-7           0.
     10950.0    3.1635E-7           0.
     10960.0    3.1635E-7           0.
     10970.0    3.1635E-7           0.
     10980.0    3.1635E-7           0.
     10990.0    3.1635E-7           0.
     11000.0    3.8428E-7           0.
