#  Table crwfpc2comp$wfpc2_f336w_005.tab  Thu 08:19:09 15-May-97

# WAVELENGTH   THROUGHPUT        error
#  ANGSTROMS TRANSMISSION TRANSMISSION

      2890.0    1.1737E-8           0.
      2892.5    1.1737E-7           0.
      2895.0    8.9117E-7           0.
      2897.5    2.1562E-6           0.
      2900.0    7.0424E-6           0.
      2910.0    4.2255E-5           0.
      2920.0    3.1808E-4           0.
      2930.0    0.0011843           0.
      2940.0    0.0032876           0.
      2942.0    0.0026996           0.
      2944.0    0.0031656           0.
      2946.0    0.0038276           0.
      2948.0    0.0045095           0.
      2950.0    0.0053065           0.
      2952.0    0.0061046           0.
      2954.0    0.0070213           0.
      2956.0    0.0080072           0.
      2958.0    0.0090659           0.
      2960.0     0.010216           0.
      2962.0     0.011456           0.
      2964.0     0.012866           0.
      2966.0     0.014275           0.
      2968.0     0.015872           0.
      2970.0     0.017514           0.
      2972.0     0.019248           0.
      2974.0     0.021126           0.
      2976.0     0.023072           0.
      2978.0     0.025139           0.
      2980.0     0.027346           0.
      2982.0      0.02967           0.
      2984.0     0.032086           0.
      2986.0     0.034597           0.
      2988.0     0.037226           0.
      2990.0     0.039927           0.
      2992.0     0.042771           0.
      2994.0     0.045561           0.
      2996.0     0.048449           0.
      2998.0     0.051384           0.
      3000.0      0.05446           0.
      3002.0     0.057582           0.
      3004.0     0.060679           0.
      3006.0     0.063845           0.
      3008.0     0.067132           0.
      3010.0     0.070468           0.
      3012.0      0.07392           0.
      3014.0     0.077293           0.
      3016.0     0.080711           0.
      3018.0     0.084349           0.
      3020.0     0.088179           0.
      3022.0     0.092026           0.
      3024.0     0.096013           0.
      3026.0      0.10033           0.
      3028.0      0.10479           0.
      3030.0      0.10932           0.
      3032.0      0.11397           0.
      3034.0      0.11911           0.
      3036.0      0.12472           0.
      3038.0      0.13069           0.
      3040.0      0.13694           0.
      3042.0      0.14355           0.
      3044.0      0.15036           0.
      3046.0      0.15778           0.
      3048.0      0.16593           0.
      3050.0      0.17472           0.
      3052.0      0.18416           0.
      3054.0      0.19418           0.
      3056.0      0.20475           0.
      3058.0      0.21608           0.
      3060.0       0.2284           0.
      3062.0      0.24147           0.
      3064.0      0.25548           0.
      3066.0      0.27038           0.
      3068.0      0.28607           0.
      3070.0      0.30271           0.
      3072.0      0.32027           0.
      3074.0      0.33844           0.
      3076.0      0.35719           0.
      3078.0      0.37647           0.
      3080.0      0.39618           0.
      3082.0       0.4164           0.
      3084.0      0.43694           0.
      3086.0      0.45716           0.
      3088.0      0.47693           0.
      3090.0       0.4964           0.
      3092.0       0.5151           0.
      3094.0      0.53305           0.
      3096.0      0.55005           0.
      3098.0      0.56598           0.
      3100.0      0.58057           0.
      3102.0      0.59396           0.
      3104.0      0.60596           0.
      3106.0       0.6165           0.
      3108.0      0.62583           0.
      3110.0      0.63393           0.
      3112.0       0.6409           0.
      3114.0      0.64701           0.
      3116.0      0.65237           0.
      3118.0      0.65725           0.
      3120.0      0.66134           0.
      3122.0      0.66453           0.
      3124.0      0.66705           0.
      3126.0      0.66946           0.
      3128.0      0.67214           0.
      3130.0      0.67506           0.
      3132.0      0.67791           0.
      3134.0      0.68057           0.
      3136.0      0.68276           0.
      3138.0      0.68517           0.
      3140.0       0.6883           0.
      3142.0      0.69144           0.
      3144.0      0.69441           0.
      3146.0      0.69746           0.
      3148.0      0.70145           0.
      3150.0      0.70554           0.
      3152.0        0.709           0.
      3154.0      0.71263           0.
      3156.0      0.71664           0.
      3158.0      0.72086           0.
      3160.0      0.72558           0.
      3162.0      0.73028           0.
      3164.0      0.73497           0.
      3166.0      0.73982           0.
      3168.0      0.74428           0.
      3170.0      0.74823           0.
      3172.0      0.75239           0.
      3174.0      0.75693           0.
      3176.0      0.76119           0.
      3178.0      0.76442           0.
      3180.0      0.76792           0.
      3182.0       0.7715           0.
      3184.0      0.77483           0.
      3186.0      0.77813           0.
      3188.0      0.78075           0.
      3190.0      0.78293           0.
      3192.0      0.78539           0.
      3194.0      0.78793           0.
      3196.0       0.7901           0.
      3198.0      0.79188           0.
      3200.0      0.79373           0.
      3202.0      0.79579           0.
      3204.0      0.79765           0.
      3206.0      0.79903           0.
      3208.0      0.80027           0.
      3210.0      0.80147           0.
      3212.0      0.80259           0.
      3214.0       0.8035           0.
      3216.0      0.80461           0.
      3218.0      0.80562           0.
      3220.0      0.80653           0.
      3222.0      0.80733           0.
      3224.0      0.80825           0.
      3226.0      0.80953           0.
      3228.0      0.81032           0.
      3230.0      0.81055           0.
      3232.0      0.81144           0.
      3234.0      0.81276           0.
      3236.0      0.81402           0.
      3238.0      0.81489           0.
      3240.0       0.8155           0.
      3242.0      0.81612           0.
      3244.0      0.81728           0.
      3246.0       0.8186           0.
      3248.0      0.81944           0.
      3250.0      0.82012           0.
      3252.0      0.82094           0.
      3254.0      0.82226           0.
      3256.0      0.82323           0.
      3258.0      0.82316           0.
      3260.0      0.82306           0.
      3262.0      0.82312           0.
      3264.0      0.82323           0.
      3266.0       0.8234           0.
      3268.0      0.82307           0.
      3270.0      0.82326           0.
      3272.0      0.82374           0.
      3274.0        0.824           0.
      3276.0      0.82381           0.
      3278.0      0.82324           0.
      3280.0      0.82287           0.
      3282.0      0.82273           0.
      3284.0      0.82264           0.
      3286.0      0.82229           0.
      3288.0      0.82145           0.
      3290.0       0.8211           0.
      3292.0      0.82085           0.
      3294.0       0.8205           0.
      3296.0      0.81999           0.
      3298.0      0.81907           0.
      3300.0      0.81772           0.
      3302.0      0.81644           0.
      3304.0       0.8156           0.
      3306.0      0.81516           0.
      3308.0      0.81444           0.
      3310.0      0.81371           0.
      3312.0      0.81277           0.
      3314.0      0.81195           0.
      3316.0      0.81124           0.
      3318.0      0.81015           0.
      3320.0      0.80909           0.
      3322.0      0.80813           0.
      3324.0      0.80714           0.
      3326.0      0.80612           0.
      3328.0       0.8051           0.
      3330.0      0.80431           0.
      3332.0      0.80375           0.
      3334.0      0.80321           0.
      3336.0      0.80246           0.
      3338.0      0.80169           0.
      3340.0      0.80103           0.
      3342.0      0.80018           0.
      3344.0      0.79959           0.
      3346.0      0.79949           0.
      3348.0      0.79897           0.
      3350.0      0.79822           0.
      3352.0      0.79787           0.
      3354.0      0.79773           0.
      3356.0      0.79749           0.
      3358.0      0.79711           0.
      3360.0      0.79683           0.
      3362.0      0.79643           0.
      3364.0      0.79631           0.
      3366.0       0.7965           0.
      3368.0      0.79675           0.
      3370.0      0.79682           0.
      3372.0      0.79672           0.
      3374.0      0.79669           0.
      3376.0      0.79702           0.
      3378.0      0.79742           0.
      3380.0      0.79756           0.
      3382.0      0.79819           0.
      3384.0      0.79892           0.
      3386.0      0.79906           0.
      3388.0      0.79952           0.
      3390.0      0.80027           0.
      3392.0      0.80128           0.
      3394.0      0.80248           0.
      3396.0      0.80356           0.
      3398.0       0.8039           0.
      3400.0      0.80371           0.
      3402.0      0.80443           0.
      3404.0      0.80546           0.
      3406.0      0.80692           0.
      3408.0      0.80809           0.
      3410.0       0.8092           0.
      3412.0      0.81056           0.
      3414.0        0.812           0.
      3416.0      0.81331           0.
      3418.0      0.81438           0.
      3420.0       0.8156           0.
      3422.0      0.81683           0.
      3424.0      0.81783           0.
      3426.0      0.81884           0.
      3428.0       0.8199           0.
      3430.0        0.821           0.
      3432.0      0.82211           0.
      3434.0      0.82305           0.
      3436.0       0.8238           0.
      3438.0      0.82438           0.
      3440.0      0.82493           0.
      3442.0      0.82535           0.
      3444.0       0.8258           0.
      3446.0      0.82592           0.
      3448.0      0.82595           0.
      3450.0      0.82557           0.
      3452.0      0.82511           0.
      3454.0      0.82445           0.
      3456.0      0.82351           0.
      3458.0      0.82241           0.
      3460.0      0.82105           0.
      3462.0      0.81922           0.
      3464.0      0.81736           0.
      3466.0      0.81547           0.
      3468.0      0.81329           0.
      3470.0      0.81071           0.
      3472.0      0.80797           0.
      3474.0      0.80471           0.
      3476.0      0.80093           0.
      3478.0      0.79706           0.
      3480.0        0.793           0.
      3482.0      0.78866           0.
      3484.0      0.78385           0.
      3486.0      0.77868           0.
      3488.0      0.77345           0.
      3490.0      0.76778           0.
      3492.0      0.76179           0.
      3494.0      0.75555           0.
      3496.0      0.74898           0.
      3498.0      0.74208           0.
      3500.0       0.7349           0.
      3502.0      0.72746           0.
      3504.0      0.71993           0.
      3506.0      0.71199           0.
      3508.0       0.7038           0.
      3510.0      0.69556           0.
      3512.0      0.68716           0.
      3514.0      0.67852           0.
      3516.0      0.66981           0.
      3518.0      0.66094           0.
      3520.0      0.65211           0.
      3522.0      0.64327           0.
      3524.0      0.63397           0.
      3526.0      0.62456           0.
      3528.0      0.61533           0.
      3530.0      0.60606           0.
      3532.0      0.59674           0.
      3534.0      0.58745           0.
      3536.0      0.57806           0.
      3538.0      0.56857           0.
      3540.0      0.55918           0.
      3542.0      0.55061           0.
      3544.0      0.54157           0.
      3546.0      0.53214           0.
      3548.0      0.52265           0.
      3550.0      0.51359           0.
      3552.0      0.50463           0.
      3554.0      0.49566           0.
      3556.0      0.48648           0.
      3558.0      0.47737           0.
      3560.0      0.46836           0.
      3562.0      0.45932           0.
      3564.0      0.45042           0.
      3566.0      0.44162           0.
      3568.0       0.4327           0.
      3570.0       0.4239           0.
      3572.0      0.41538           0.
      3574.0        0.407           0.
      3576.0      0.39831           0.
      3578.0      0.38984           0.
      3580.0      0.38146           0.
      3582.0      0.37315           0.
      3584.0      0.36484           0.
      3586.0      0.35655           0.
      3588.0      0.34826           0.
      3590.0      0.34019           0.
      3592.0      0.33216           0.
      3594.0      0.32416           0.
      3596.0      0.31618           0.
      3598.0      0.30843           0.
      3600.0      0.30075           0.
      3602.0      0.29308           0.
      3604.0      0.28543           0.
      3606.0      0.27775           0.
      3608.0      0.27014           0.
      3610.0      0.26266           0.
      3612.0      0.25524           0.
      3614.0      0.24789           0.
      3616.0      0.24054           0.
      3618.0      0.23348           0.
      3620.0      0.22648           0.
      3622.0      0.21953           0.
      3624.0      0.21277           0.
      3626.0      0.20608           0.
      3628.0      0.19951           0.
      3630.0      0.19303           0.
      3632.0      0.18679           0.
      3634.0      0.18068           0.
      3636.0      0.17474           0.
      3638.0       0.1689           0.
      3640.0      0.16322           0.
      3642.0      0.15766           0.
      3644.0      0.15228           0.
      3646.0      0.14707           0.
      3648.0      0.14197           0.
      3650.0      0.13695           0.
      3652.0      0.13214           0.
      3654.0      0.12751           0.
      3656.0      0.12294           0.
      3658.0      0.11848           0.
      3660.0      0.11416           0.
      3662.0         0.11           0.
      3664.0      0.10594           0.
      3666.0      0.10202           0.
      3668.0     0.098194           0.
      3670.0     0.094555           0.
      3672.0     0.091057           0.
      3674.0     0.087607           0.
      3676.0     0.084273           0.
      3678.0     0.081081           0.
      3680.0     0.078029           0.
      3682.0     0.075048           0.
      3684.0     0.072418           0.
      3686.0     0.069719           0.
      3688.0     0.067066           0.
      3690.0     0.064484           0.
      3692.0     0.062089           0.
      3694.0     0.059719           0.
      3696.0     0.057512           0.
      3698.0     0.055376           0.
      3700.0     0.053335           0.
      3702.0     0.051339           0.
      3704.0     0.049367           0.
      3706.0     0.047559           0.
      3708.0     0.045752           0.
      3710.0     0.044015           0.
      3712.0     0.042347           0.
      3714.0     0.040774           0.
      3716.0     0.039249           0.
      3718.0     0.037793           0.
      3720.0     0.036361           0.
      3722.0     0.035023           0.
      3724.0     0.033733           0.
      3726.0     0.032442           0.
      3728.0     0.031198           0.
      3730.0         0.03           0.
      3732.0     0.028874           0.
      3734.0     0.027724           0.
      3736.0     0.026691           0.
      3738.0     0.025681           0.
      3740.0     0.024709           0.
      3750.0     0.020058           0.
      3760.0     0.016592           0.
      3770.0     0.013228           0.
      3780.0     0.010724           0.
      3790.0    0.0083136           0.
      3800.0    0.0065448           0.
      3810.0    0.0048734           0.
      3820.0    0.0036891           0.
      3830.0    0.0026139           0.
      3840.0    0.0018792           0.
      3850.0    0.0012465           0.
      3860.0    8.4392E-4           0.
      3870.0    5.1879E-4           0.
      3880.0    3.2513E-4           0.
      3890.0    1.8193E-4           0.
      3900.0    1.0446E-4           0.
      3910.0    5.2818E-5           0.
      3920.0    2.8170E-5           0.
      3930.0    1.2911E-5           0.
      3940.0    7.0424E-6           0.
      3950.0    3.5212E-6           0.
      3960.0    2.3475E-6           0.
      3970.0    1.1737E-6           0.
      3980.0    1.1737E-6           0.
      3990.0    1.1737E-6           0.
      4000.0    1.1737E-6           0.
      4010.0    1.1737E-6           0.
      4020.0    1.1737E-6           0.
      4030.0    1.1737E-6           0.
      4040.0    1.1737E-6           0.
      4050.0    1.1737E-6           0.
      4060.0    1.1737E-6           0.
      4070.0    1.1737E-6           0.
      4080.0    1.1737E-6           0.
      4090.0    1.1737E-6           0.
      4100.0    1.1737E-6           0.
      4110.0    1.1737E-6           0.
      4120.0    1.1737E-6           0.
      4130.0    1.1737E-6           0.
      4140.0    1.1737E-6           0.
      4150.0    1.1737E-6           0.
      4160.0    1.1737E-6           0.
      4170.0    1.1737E-6           0.
      4180.0    1.1737E-6           0.
      4190.0    1.1737E-6           0.
      4200.0    1.1737E-6           0.
      4210.0    1.1737E-6           0.
      4220.0    1.1737E-6           0.
      4230.0    1.1737E-6           0.
      4240.0    1.1737E-6           0.
      4250.0    1.1737E-6           0.
      4260.0    1.1737E-6           0.
      4270.0    1.1737E-6           0.
      4280.0    1.1737E-6           0.
      4290.0           0.           0.
      4300.0    1.1737E-6           0.
      4310.0    1.1737E-6           0.
      4320.0    1.1737E-6           0.
      4330.0    1.1737E-6           0.
      4340.0           0.           0.
      4350.0    1.1737E-6           0.
      4360.0    1.1737E-6           0.
      4370.0           0.           0.
      4380.0           0.           0.
      4390.0    1.1737E-6           0.
      4400.0    1.1737E-6           0.
      4410.0    6.2354E-7           0.
      4420.0    6.0431E-7           0.
      4430.0    5.8507E-7           0.
      4440.0    5.6584E-7           0.
      4450.0    5.4660E-7           0.
      4460.0    5.2737E-7           0.
      4470.0    5.0813E-7           0.
      4480.0    4.8890E-7           0.
      4490.0    4.6966E-7           0.
      4500.0    4.5043E-7           0.
      4510.0    4.4750E-7           0.
      4520.0    4.4458E-7           0.
      4530.0    4.4165E-7           0.
      4540.0    4.3873E-7           0.
      4550.0    4.3580E-7           0.
      4560.0    4.3287E-7           0.
      4570.0    4.2995E-7           0.
      4580.0    4.2702E-7           0.
      4590.0    4.2410E-7           0.
      4600.0    4.2117E-7           0.
      4610.0    4.1506E-7           0.
      4620.0    4.0895E-7           0.
      4630.0    4.0284E-7           0.
      4640.0    3.9673E-7           0.
      4650.0    3.9062E-7           0.
      4660.0    3.8451E-7           0.
      4670.0    3.7840E-7           0.
      4680.0    3.7228E-7           0.
      4690.0    3.6617E-7           0.
      4700.0    3.6006E-7           0.
      4710.0    3.5447E-7           0.
      4720.0    3.4888E-7           0.
      4730.0    3.4329E-7           0.
      4740.0    3.3771E-7           0.
      4750.0    3.3212E-7           0.
      4760.0    3.2653E-7           0.
      4770.0    3.2094E-7           0.
      4780.0    3.1535E-7           0.
      4790.0    3.0976E-7           0.
      4800.0    3.0417E-7           0.
      4810.0    2.9620E-7           0.
      4820.0    2.8824E-7           0.
      4830.0    2.8027E-7           0.
      4840.0    2.7230E-7           0.
      4850.0    2.6434E-7           0.
      4860.0    2.5637E-7           0.
      4870.0    2.4840E-7           0.
      4880.0    2.4044E-7           0.
      4890.0    2.3247E-7           0.
      4900.0    2.2450E-7           0.
      4910.0    2.2185E-7           0.
      4920.0    2.1920E-7           0.
      4930.0    2.1656E-7           0.
      4940.0    2.1391E-7           0.
      4950.0    2.1126E-7           0.
      4960.0    2.0861E-7           0.
      4970.0    2.0596E-7           0.
      4980.0    2.0332E-7           0.
      4990.0    2.0067E-7           0.
      5000.0    1.9802E-7           0.
      5010.0    1.9969E-7           0.
      5020.0    2.0136E-7           0.
      5030.0    2.0303E-7           0.
      5040.0    2.0470E-7           0.
      5050.0    2.0637E-7           0.
      5060.0    2.0804E-7           0.
      5070.0    2.0971E-7           0.
      5080.0    2.1138E-7           0.
      5090.0    2.1305E-7           0.
      5100.0    2.1472E-7           0.
      5110.0    2.1689E-7           0.
      5120.0    2.1906E-7           0.
      5130.0    2.2124E-7           0.
      5140.0    2.2341E-7           0.
      5150.0    2.2558E-7           0.
      5160.0    2.2776E-7           0.
      5170.0    2.2993E-7           0.
      5180.0    2.3210E-7           0.
      5190.0    2.3428E-7           0.
      5200.0    2.3645E-7           0.
      5210.0    2.3361E-7           0.
      5220.0    2.3078E-7           0.
      5230.0    2.2794E-7           0.
      5240.0    2.2511E-7           0.
      5250.0    2.2228E-7           0.
      5260.0    2.1944E-7           0.
      5270.0    2.1661E-7           0.
      5280.0    2.1377E-7           0.
      5290.0    2.1094E-7           0.
      5300.0    2.0810E-7           0.
      5310.0    2.0357E-7           0.
      5320.0    1.9904E-7           0.
      5330.0    1.9451E-7           0.
      5340.0    1.8998E-7           0.
      5350.0    1.8544E-7           0.
      5360.0    1.8091E-7           0.
      5370.0    1.7638E-7           0.
      5380.0    1.7185E-7           0.
      5390.0    1.6732E-7           0.
      5400.0    1.6279E-7           0.
      5410.0    1.5957E-7           0.
      5420.0    1.5634E-7           0.
      5430.0    1.5312E-7           0.
      5440.0    1.4990E-7           0.
      5450.0    1.4668E-7           0.
      5460.0    1.4346E-7           0.
      5470.0    1.4023E-7           0.
      5480.0    1.3701E-7           0.
      5490.0    1.3379E-7           0.
      5500.0    1.3057E-7           0.
      5510.0    1.3018E-7           0.
      5520.0    1.2979E-7           0.
      5530.0    1.2939E-7           0.
      5540.0    1.2900E-7           0.
      5550.0    1.2861E-7           0.
      5560.0    1.2822E-7           0.
      5570.0    1.2783E-7           0.
      5580.0    1.2743E-7           0.
      5590.0    1.2704E-7           0.
      5600.0    1.2665E-7           0.
      5610.0    1.2840E-7           0.
      5620.0    1.3016E-7           0.
      5630.0    1.3191E-7           0.
      5640.0    1.3366E-7           0.
      5650.0    1.3542E-7           0.
      5660.0    1.3717E-7           0.
      5670.0    1.3892E-7           0.
      5680.0    1.4067E-7           0.
      5690.0    1.4243E-7           0.
      5700.0    1.4418E-7           0.
      5710.0    1.4709E-7           0.
      5720.0    1.4999E-7           0.
      5730.0    1.5290E-7           0.
      5740.0    1.5580E-7           0.
      5750.0    1.5871E-7           0.
      5760.0    1.6162E-7           0.
      5770.0    1.6452E-7           0.
      5780.0    1.6743E-7           0.
      5790.0    1.7033E-7           0.
      5800.0    1.7324E-7           0.
      5810.0    1.7785E-7           0.
      5820.0    1.8247E-7           0.
      5830.0    1.8708E-7           0.
      5840.0    1.9170E-7           0.
      5850.0    1.9632E-7           0.
      5860.0    2.0093E-7           0.
      5870.0    2.0555E-7           0.
      5880.0    2.1016E-7           0.
      5890.0    2.1478E-7           0.
      5900.0    2.1939E-7           0.
      5910.0    2.2120E-7           0.
      5920.0    2.2301E-7           0.
      5930.0    2.2482E-7           0.
      5940.0    2.2663E-7           0.
      5950.0    2.2844E-7           0.
      5960.0    2.3025E-7           0.
      5970.0    2.3206E-7           0.
      5980.0    2.3387E-7           0.
      5990.0    2.3568E-7           0.
      6000.0    2.3749E-7           0.
      6010.0    2.3499E-7           0.
      6020.0    2.3250E-7           0.
      6030.0    2.3000E-7           0.
      6040.0    2.2751E-7           0.
      6050.0    2.2501E-7           0.
      6060.0    2.2252E-7           0.
      6070.0    2.2002E-7           0.
      6080.0    2.1753E-7           0.
      6090.0    2.1503E-7           0.
      6100.0    2.1254E-7           0.
      6110.0    2.0967E-7           0.
      6120.0    2.0680E-7           0.
      6130.0    2.0393E-7           0.
      6140.0    2.0106E-7           0.
      6150.0    1.9819E-7           0.
      6160.0    1.9532E-7           0.
      6170.0    1.9245E-7           0.
      6180.0    1.8957E-7           0.
      6190.0    1.8670E-7           0.
      6200.0    1.8383E-7           0.
      6210.0    1.8615E-7           0.
      6220.0    1.8847E-7           0.
      6230.0    1.9079E-7           0.
      6240.0    1.9311E-7           0.
      6250.0    1.9543E-7           0.
      6260.0    1.9775E-7           0.
      6270.0    2.0007E-7           0.
      6280.0    2.0239E-7           0.
      6290.0    2.0471E-7           0.
      6300.0    2.0703E-7           0.
      6310.0    2.1137E-7           0.
      6320.0    2.1570E-7           0.
      6330.0    2.2004E-7           0.
      6340.0    2.2437E-7           0.
      6350.0    2.2870E-7           0.
      6360.0    2.3304E-7           0.
      6370.0    2.3737E-7           0.
      6380.0    2.4171E-7           0.
      6390.0    2.4604E-7           0.
      6400.0    2.5038E-7           0.
      6410.0    2.5387E-7           0.
      6420.0    2.5737E-7           0.
      6430.0    2.6086E-7           0.
      6440.0    2.6435E-7           0.
      6450.0    2.6785E-7           0.
      6460.0    2.7134E-7           0.
      6470.0    2.7484E-7           0.
      6480.0    2.7833E-7           0.
      6490.0    2.8182E-7           0.
      6500.0    2.8532E-7           0.
      6510.0    2.9448E-7           0.
      6520.0    3.0365E-7           0.
      6530.0    3.1282E-7           0.
      6540.0    3.2198E-7           0.
      6550.0    3.3115E-7           0.
      6560.0    3.4032E-7           0.
      6570.0    3.4948E-7           0.
      6580.0    3.5865E-7           0.
      6590.0    3.6782E-7           0.
      6600.0    3.7698E-7           0.
      6610.0    3.9567E-7           0.
      6620.0    4.1435E-7           0.
      6630.0    4.3304E-7           0.
      6640.0    4.5172E-7           0.
      6650.0    4.7041E-7           0.
      6660.0    4.8909E-7           0.
      6670.0    5.0778E-7           0.
      6680.0    5.2646E-7           0.
      6690.0    5.4515E-7           0.
      6700.0    5.6383E-7           0.
      6710.0    1.1737E-6           0.
      6720.0    2.3475E-6           0.
      6730.0    3.5212E-6           0.
      6740.0    4.6949E-6           0.
      6750.0    5.8687E-6           0.
      6760.0    8.2162E-6           0.
      6770.0    1.1737E-5           0.
      6780.0    1.6432E-5           0.
      6790.0    2.2301E-5           0.
      6800.0    2.8170E-5           0.
      6810.0    3.7560E-5           0.
      6820.0    4.8123E-5           0.
      6830.0    6.3382E-5           0.
      6840.0    7.8640E-5           0.
      6850.0    1.0094E-4           0.
      6860.0    1.2442E-4           0.
      6870.0    1.5493E-4           0.
      6880.0    1.8662E-4           0.
      6890.0    2.2770E-4           0.
      6900.0    2.6761E-4           0.
      6910.0    3.1808E-4           0.
      6920.0    3.6621E-4           0.
      6930.0    4.2372E-4           0.
      6940.0    4.7536E-4           0.
      6950.0    5.3522E-4           0.
      6960.0    5.8804E-4           0.
      6970.0    6.4790E-4           0.
      6980.0    7.0189E-4           0.
      6990.0    7.6175E-4           0.
      7000.0    8.1692E-4           0.
      7010.0    8.8148E-4           0.
      7020.0    9.4134E-4           0.
      7030.0    0.0010129           0.
      7040.0    0.0010787           0.
      7050.0    0.0011467           0.
      7060.0    0.0012266           0.
      7070.0    0.0012993           0.
      7080.0    0.0013791           0.
      7090.0    0.0014484           0.
      7100.0    0.0015235           0.
      7110.0    0.0015869           0.
      7120.0    0.0016526           0.
      7130.0    0.0017019           0.
      7140.0    0.0017512           0.
      7150.0    0.0017829           0.
      7160.0    0.0018122           0.
      7170.0     0.001831           0.
      7180.0    0.0018428           0.
      7190.0    0.0018428           0.
      7200.0    0.0018334           0.
      7210.0    0.0018205           0.
      7220.0    0.0018017           0.
      7230.0     0.001777           0.
      7240.0     0.001743           0.
      7250.0    0.0017113           0.
      7260.0    0.0016679           0.
      7270.0    0.0016268           0.
      7280.0    0.0015787           0.
      7290.0    0.0015306           0.
      7300.0    0.0014777           0.
      7310.0    0.0014284           0.
      7320.0    0.0013709           0.
      7330.0    0.0013169           0.
      7340.0    0.0012571           0.
      7350.0    0.0012031           0.
      7360.0    0.0011409           0.
      7370.0    0.0010892           0.
      7380.0    0.0010282           0.
      7390.0    9.7537E-4           0.
      7400.0    9.1669E-4           0.
      7410.0    8.6504E-4           0.
      7420.0    8.0870E-4           0.
      7430.0    7.6058E-4           0.
      7440.0    7.0776E-4           0.
      7450.0    6.6199E-4           0.
      7460.0    6.1269E-4           0.
      7470.0    5.7044E-4           0.
      7480.0    5.2583E-4           0.
      7490.0    4.8827E-4           0.
      7500.0    4.4719E-4           0.
      7510.0    4.1433E-4           0.
      7520.0    3.7794E-4           0.
      7530.0    3.4743E-4           0.
      7540.0    3.1574E-4           0.
      7550.0    2.8991E-4           0.
      7560.0    2.6292E-4           0.
      7570.0    2.3944E-4           0.
      7580.0    2.1597E-4           0.
      7590.0    1.9836E-4           0.
      7600.0    1.7841E-4           0.
      7610.0    1.6198E-4           0.
      7620.0    1.4672E-4           0.
      7630.0    1.3263E-4           0.
      7640.0    1.1972E-4           0.
      7650.0    1.0916E-4           0.
      7660.0    9.7420E-5           0.
      7670.0    8.9204E-5           0.
      7680.0    7.9814E-5           0.
      7690.0    7.2772E-5           0.
      7700.0    6.5729E-5           0.
      7710.0    5.9861E-5           0.
      7720.0    5.3992E-5           0.
      7730.0    4.9297E-5           0.
      7740.0    4.4602E-5           0.
      7750.0    4.1081E-5           0.
      7760.0    3.7560E-5           0.
      7770.0    3.4038E-5           0.
      7780.0    3.0517E-5           0.
      7790.0    2.8170E-5           0.
      7800.0    2.5822E-5           0.
      7810.0    2.3475E-5           0.
      7820.0    2.1127E-5           0.
      7830.0    1.9954E-5           0.
      7840.0    1.8780E-5           0.
      7850.0    1.7606E-5           0.
      7860.0    1.6432E-5           0.
      7870.0    1.4085E-5           0.
      7880.0    1.4085E-5           0.
      7890.0    1.2911E-5           0.
      7900.0    1.0655E-5           0.
      7910.0    1.0171E-5           0.
      7920.0    9.6858E-6           0.
      7930.0    9.2010E-6           0.
      7940.0    8.7162E-6           0.
      7950.0    8.2315E-6           0.
      7960.0    7.7467E-6           0.
      7970.0    7.2620E-6           0.
      7980.0    6.7772E-6           0.
      7990.0    6.2924E-6           0.
      8000.0    5.8077E-6           0.
      8010.0    5.5924E-6           0.
      8020.0    5.3771E-6           0.
      8030.0    5.1617E-6           0.
      8040.0    4.9464E-6           0.
      8050.0    4.7311E-6           0.
      8060.0    4.5158E-6           0.
      8070.0    4.3005E-6           0.
      8080.0    4.0852E-6           0.
      8090.0    3.8699E-6           0.
      8100.0    3.6546E-6           0.
      8110.0    3.5514E-6           0.
      8120.0    3.4482E-6           0.
      8130.0    3.3450E-6           0.
      8140.0    3.2418E-6           0.
      8150.0    3.1386E-6           0.
      8160.0    3.0354E-6           0.
      8170.0    2.9322E-6           0.
      8180.0    2.8290E-6           0.
      8190.0    2.7259E-6           0.
      8200.0    2.6227E-6           0.
      8210.0    2.5719E-6           0.
      8220.0    2.5211E-6           0.
      8230.0    2.4704E-6           0.
      8240.0    2.4196E-6           0.
      8250.0    2.3688E-6           0.
      8260.0    2.3181E-6           0.
      8270.0    2.2673E-6           0.
      8280.0    2.2165E-6           0.
      8290.0    2.1658E-6           0.
      8300.0    2.1150E-6           0.
      8310.0    2.0818E-6           0.
      8320.0    2.0485E-6           0.
      8330.0    2.0153E-6           0.
      8340.0    1.9820E-6           0.
      8350.0    1.9488E-6           0.
      8360.0    1.9155E-6           0.
      8370.0    1.8823E-6           0.
      8380.0    1.8490E-6           0.
      8390.0    1.8158E-6           0.
      8400.0    1.7825E-6           0.
      8410.0    1.7406E-6           0.
      8420.0    1.6987E-6           0.
      8430.0    1.6567E-6           0.
      8440.0    1.6148E-6           0.
      8450.0    1.5729E-6           0.
      8460.0    1.5309E-6           0.
      8470.0    1.4890E-6           0.
      8480.0    1.4471E-6           0.
      8490.0    1.4051E-6           0.
      8500.0    1.3632E-6           0.
      8510.0    1.3433E-6           0.
      8520.0    1.3234E-6           0.
      8530.0    1.3035E-6           0.
      8540.0    1.2836E-6           0.
      8560.0    1.2439E-6           0.
      8570.0    1.2240E-6           0.
      8580.0    1.2041E-6           0.
      8590.0    1.1842E-6           0.
      8600.0    1.1643E-6           0.
      8610.0    1.1374E-6           0.
      8620.0    1.1104E-6           0.
      8630.0    1.0835E-6           0.
      8640.0    1.0565E-6           0.
      8650.0    1.0295E-6           0.
      8660.0    1.0026E-6           0.
      8670.0    9.7560E-7           0.
      8680.0    9.4864E-7           0.
      8690.0    9.2167E-7           0.
      8700.0    8.9471E-7           0.
      8710.0    8.8790E-7           0.
      8720.0    8.8108E-7           0.
      8730.0    8.7427E-7           0.
      8740.0    8.6746E-7           0.
      8750.0    8.6064E-7           0.
      8760.0    8.5383E-7           0.
      8770.0    8.4702E-7           0.
      8780.0    8.4020E-7           0.
      8790.0    8.3339E-7           0.
      8800.0    8.2657E-7           0.
      8810.0    8.1968E-7           0.
      8820.0    8.1279E-7           0.
      8830.0    8.0590E-7           0.
      8840.0    7.9901E-7           0.
      8850.0    7.9212E-7           0.
      8860.0    7.8523E-7           0.
      8870.0    7.7834E-7           0.
      8880.0    7.7145E-7           0.
      8890.0    7.6456E-7           0.
      8900.0    7.5767E-7           0.
      8910.0    7.5298E-7           0.
      8920.0    7.4830E-7           0.
      8930.0    7.4361E-7           0.
      8940.0    7.3893E-7           0.
      8950.0    7.3424E-7           0.
      8960.0    7.2956E-7           0.
      8970.0    7.2487E-7           0.
      8980.0    7.2019E-7           0.
      8990.0    7.1550E-7           0.
      9000.0    7.1082E-7           0.
      9010.0    7.4982E-7           0.
      9020.0    7.8882E-7           0.
      9030.0    8.2781E-7           0.
      9040.0    8.6681E-7           0.
      9050.0    9.0581E-7           0.
      9060.0    9.4481E-7           0.
      9070.0    9.8381E-7           0.
      9080.0    1.0228E-6           0.
      9090.0    1.0618E-6           0.
      9100.0    1.1008E-6           0.
      9110.0    1.0837E-6           0.
      9120.0    1.0667E-6           0.
      9130.0    1.0496E-6           0.
      9140.0    1.0326E-6           0.
      9150.0    1.0155E-6           0.
      9160.0    9.9845E-7           0.
      9170.0    9.8139E-7           0.
      9180.0    9.6433E-7           0.
      9190.0    9.4727E-7           0.
      9200.0    9.3021E-7           0.
      9210.0    9.3498E-7           0.
      9220.0    9.3975E-7           0.
      9230.0    9.4452E-7           0.
      9240.0    9.4929E-7           0.
      9250.0    9.5406E-7           0.
      9260.0    9.5883E-7           0.
      9270.0    9.6360E-7           0.
      9280.0    9.6837E-7           0.
      9290.0    9.7314E-7           0.
      9300.0    9.7790E-7           0.
      9310.0    1.0052E-6           0.
      9320.0    1.0326E-6           0.
      9330.0    1.0599E-6           0.
      9340.0    1.0872E-6           0.
      9350.0    1.1146E-6           0.
      9360.0    1.1419E-6           0.
      9370.0    1.1692E-6           0.
      9380.0    1.1965E-6           0.
      9390.0    1.2239E-6           0.
      9400.0    1.2512E-6           0.
      9410.0    1.2831E-6           0.
      9420.0    1.3149E-6           0.
      9430.0    1.3468E-6           0.
      9440.0    1.3787E-6           0.
      9450.0    1.4106E-6           0.
      9460.0    1.4424E-6           0.
      9470.0    1.4743E-6           0.
      9480.0    1.5062E-6           0.
      9490.0    1.5381E-6           0.
      9500.0    1.5699E-6           0.
      9510.0    1.6911E-6           0.
      9520.0    1.8122E-6           0.
      9530.0    1.9334E-6           0.
      9540.0    2.0545E-6           0.
      9550.0    2.1756E-6           0.
      9560.0    2.2968E-6           0.
      9570.0    2.4179E-6           0.
      9580.0    2.5391E-6           0.
      9590.0    2.6602E-6           0.
      9600.0    2.7814E-6           0.
      9610.0    2.9305E-6           0.
      9620.0    3.0797E-6           0.
      9630.0    3.2289E-6           0.
      9640.0    3.3780E-6           0.
      9650.0    3.5272E-6           0.
      9660.0    3.6764E-6           0.
      9670.0    3.8256E-6           0.
      9680.0    3.9747E-6           0.
      9690.0    4.1239E-6           0.
      9700.0    4.2731E-6           0.
      9710.0    4.5602E-6           0.
      9720.0    4.8474E-6           0.
      9730.0    5.1345E-6           0.
      9740.0    5.4216E-6           0.
      9750.0    5.7088E-6           0.
      9760.0    5.9959E-6           0.
      9770.0    6.2831E-6           0.
      9780.0    6.5702E-6           0.
      9790.0    6.8573E-6           0.
      9800.0    7.1445E-6           0.
      9810.0    7.6338E-6           0.
      9820.0    8.1230E-6           0.
      9830.0    8.6123E-6           0.
      9840.0    9.1016E-6           0.
      9850.0    9.5909E-6           0.
      9860.0    1.0080E-5           0.
      9870.0    1.0569E-5           0.
      9880.0    1.1059E-5           0.
      9890.0    1.1548E-5           0.
      9900.0    1.2037E-5           0.
      9910.0    1.2769E-5           0.
      9920.0    1.3501E-5           0.
      9930.0    1.4233E-5           0.
      9940.0    1.4965E-5           0.
      9950.0    1.5697E-5           0.
      9960.0    1.6429E-5           0.
      9970.0    1.7161E-5           0.
      9980.0    1.7893E-5           0.
      9990.0    1.8625E-5           0.
     10000.0    1.9357E-5           0.
     10010.0    1.5259E-5           0.
     10020.0    2.5822E-5           0.
     10030.0    2.5822E-5           0.
     10040.0    3.7560E-5           0.
     10050.0    2.2301E-5           0.
     10060.0    2.2301E-5           0.
     10070.0    2.8170E-5           0.
     10080.0    2.9343E-5           0.
     10090.0    3.5212E-5           0.
     10100.0    3.4038E-5           0.
     10110.0    3.0517E-5           0.
     10120.0    2.8170E-5           0.
     10130.0    3.8733E-5           0.
     10140.0    3.8733E-5           0.
     10150.0    4.2255E-5           0.
     10160.0    3.9907E-5           0.
     10170.0    4.5776E-5           0.
     10180.0    4.2255E-5           0.
     10190.0    4.5776E-5           0.
     10200.0    5.2818E-5           0.
     10210.0    5.1644E-5           0.
     10220.0    5.2818E-5           0.
     10230.0    6.1034E-5           0.
     10240.0    4.9297E-5           0.
     10250.0    5.9861E-5           0.
     10260.0    6.8077E-5           0.
     10270.0    6.8077E-5           0.
     10280.0    6.6903E-5           0.
     10290.0    6.6903E-5           0.
     10300.0    7.1598E-5           0.
     10310.0    7.3945E-5           0.
     10320.0    8.0988E-5           0.
     10330.0    8.6856E-5           0.
     10340.0    7.5119E-5           0.
     10350.0    8.3335E-5           0.
     10360.0    9.1551E-5           0.
     10370.0    8.6856E-5           0.
     10380.0    9.5073E-5           0.
     10390.0    9.8594E-5           0.
     10400.0    9.3899E-5           0.
     10410.0    1.0798E-4           0.
     10420.0    1.0212E-4           0.
     10430.0    1.0798E-4           0.
     10440.0    1.0916E-4           0.
     10450.0    1.0329E-4           0.
     10460.0    1.2207E-4           0.
     10470.0    1.2442E-4           0.
     10480.0    1.2794E-4           0.
     10490.0    1.2089E-4           0.
     10500.0    1.3850E-4           0.
     10510.0    1.3381E-4           0.
     10520.0    1.3146E-4           0.
     10530.0    1.3615E-4           0.
     10540.0    1.3967E-4           0.
     10550.0    1.4202E-4           0.
     10560.0    1.5141E-4           0.
     10570.0    1.5024E-4           0.
     10580.0    1.6432E-4           0.
     10590.0    1.6198E-4           0.
     10600.0    1.6902E-4           0.
     10610.0    1.7019E-4           0.
     10620.0    1.6550E-4           0.
     10630.0    1.6432E-4           0.
     10640.0    1.6784E-4           0.
     10650.0    1.8545E-4           0.
     10660.0    1.8662E-4           0.
     10670.0    1.7958E-4           0.
     10680.0    1.8310E-4           0.
     10690.0    1.8076E-4           0.
     10700.0    1.8780E-4           0.
     10710.0    1.9719E-4           0.
     10720.0    1.9601E-4           0.
     10730.0    1.9836E-4           0.
     10740.0    2.0071E-4           0.
     10750.0    2.0893E-4           0.
     10760.0    2.0775E-4           0.
     10770.0    2.0658E-4           0.
     10780.0    2.1245E-4           0.
     10790.0    2.0423E-4           0.
     10800.0    2.1127E-4           0.
     10810.0    2.1479E-4           0.
     10820.0    2.1597E-4           0.
     10830.0    2.2184E-4           0.
     10840.0    2.1597E-4           0.
     10850.0    2.1479E-4           0.
     10860.0    2.1597E-4           0.
     10870.0    2.2066E-4           0.
     10880.0    2.2301E-4           0.
     10890.0    2.2536E-4           0.
     10900.0    2.2301E-4           0.
     10910.0    2.2184E-4           0.
     10920.0    2.2888E-4           0.
     10930.0    2.2536E-4           0.
     10940.0    2.1949E-4           0.
     10950.0    2.3240E-4           0.
     10960.0    2.1949E-4           0.
     10970.0    2.1949E-4           0.
     10980.0    2.2184E-4           0.
     10990.0    2.2536E-4           0.
     11000.0    2.0775E-4           0.
